File: ASM109_2021_data/MTS/Quasi/MTS_quasi_2.csv
,Time [s],Load [N],Displacement [mm]
0,0.0078125,-414.314,0.000231721
85,0.422852,-234.753,0.0134853
170,0.837891,-54.8986,0.0254001
255,1.25293,122.554,0.0393743
340,1.66797,287.268,0.0539369
425,2.08301,475.424,0.0679636
510,2.49805,642.05,0.0808808
595,2.91309,765.537,0.0949152
680,3.328125,942.947,0.108681
765,3.74316,1133.06,0.122725
850,4.1582,1329.4,0.135625
935,4.57324,1505.46,0.150112
1020,4.98828,1687.04,0.164154
1105,5.40332,1838.29,0.179066
1190,5.81836,2033.83,0.190014
1275,6.2334,2211.51,0.206161
1360,6.64844,2376.24,0.221107
1445,7.06348,2552.44,0.233148
1530,7.47852,2728.45,0.248215
1615,7.89355,2880.79,0.2622551
1700,8.30859,3039.19,0.274475
1785,8.72363,3181.48,0.287103
1870,9.13867,3333.51,0.301085
1955,9.55371,3526.72,0.316699
2040,9.96875,3709.49,0.329014
2125,10.3838,3894.01,0.344884
2210,10.7988,4060.05,0.356392
2295,11.2139,4227.7,0.372198
2380,11.6289,4408.81,0.387447
2465,12.0439,4588.28,0.3998242
2550,12.459,4762.88,0.414543
2635,12.874,4918.21,0.42701
2720,13.2891,5079.64,0.442095
2805,13.7041,5233.57,0.454152
2890,14.1191,5406.29,0.467204
2975,14.53418,5535.45,0.481044
3060,14.9492,5711.79,0.494987
3145,15.3643,5907.16,0.509718
3230,15.7793,6066.04,0.523172
3315,16.1943,6232.74,0.536725
3400,16.6094,6391.14,0.550814
3485,17.0244,6579.08,0.565776
3570,17.4395,6752.42,0.579574
3655,17.8545,6910.92,0.594191
3740,18.2695,7068.61,0.60911
3825,18.68457,7231.34,0.621735
3910,19.0996,7404.83,0.635515
3995,19.5146,7552.06,0.649946
4080,19.9297,7713.44,0.661951
4165,20.3447,7864.75,0.6746
4250,20.7598,8032.02,0.688155
4335,21.1748,8177.31,0.702817
4420,21.5898,8360.56,0.718521
4505,22.0049,8529.23,0.73133
4590,22.4199,8683.36,0.743473
4675,22.835,8841.69,0.759108
4760,23.25,9024.44,0.774252
4845,23.665,9203.23,0.787535
4930,24.0801,9355.34,0.800795
5015,24.4951,9521.1,0.81396
5100,24.9102,9650.86,0.827841
5185,25.3252,9822.45,0.841519
5270,25.7402,10001,0.855639
5355,26.1553,10149.3,0.87023
5440,26.5703,10307.8,0.882431
5525,26.9854,10468.5,0.898506
5610,27.4004,10615.6,0.909693
5695,27.81543,10769.6,0.925459
5780,28.2305,10941.7,0.937527
5865,28.6455,11109.2,0.952461
5950,29.0605,11275.3,0.966749
6035,29.4756,11433.1,0.9798879
6120,29.8906,11604.4,0.994504
6205,30.3057,11739.6,1.00717
6290,30.7207,11911.9,1.02145
6375,31.1357,12061.6,1.0336
6460,31.5508,12224.9,1.04916
6545,31.96582,12388,1.06369
6630,32.3809,12537.8,1.076743
6715,32.7959,12703.8,1.08976
6800,33.2109,12851.3,1.10453
6885,33.626,13016.6,1.118054
6970,34.041,13163.2,1.13227
7055,34.4561,13325.3,1.14748
7140,34.8711,13498.4,1.16078
7225,35.2861,13654.7,1.17511
7310,35.7012,13812.4,1.18796
7395,36.1162,13957,1.201286
7480,36.53125,14138.6,1.21654
7565,36.9463,14287.5,1.23015
7650,37.3613,14444.3,1.24288
7735,37.7764,14592.8,1.25803
7820,38.1914,14745,1.26997
7905,38.6064,14860.2,1.28433
7990,39.0215,15016.2,1.29788
8075,39.4365,15184.2,1.3117
8160,39.8516,15376.2,1.32559
8245,40.2666,15535.9,1.33985
8330,40.6816,15683.8,1.35373
8415,41.09668,15842.3,1.36828
8500,41.5117,15988.3,1.38178
8585,41.9268,16149.1,1.39437
8670,42.3418,16301.6,1.40875
8755,42.7568,16453.5,1.423
8840,43.1719,16610.1,1.43658
8925,43.5869,16761.1,1.4504
9010,44.002,16908.3,1.46187
9095,44.417,17020.4,1.47726
9180,44.832,17196.8,1.49228
9265,45.24707,17361.9,1.50581
9350,45.6621,17532.2,1.51954
9435,46.0771,17671.1,1.53463
9520,46.4922,17841.1,1.54898
9605,46.9072,18002,1.56242
9690,47.3223,18151.8,1.57589
9775,47.7373,18307.5,1.58906
9860,48.1523,18458.9,1.60331
9945,48.5674,18604.4,1.61662
10030,48.9824,18773.7,1.6302
10115,49.3975,18921.9,1.64496
10200,49.8125,19050.1,1.65766
10285,50.2275,19207.4,1.67249
10370,50.6426,19345.9,1.68587
10455,51.0576,19512.4,1.69975
10540,51.4727,19662.1,1.71243
10625,51.8877,19819.5,1.7269
10710,52.3027,19959.3,1.742041
10795,52.7178,20110,1.75367
10880,53.1328,20263.5,1.76917
10965,53.5479,20431.9,1.78447
11050,53.9629,20581.6,1.79654
11135,54.3779,20729.8,1.81137
11220,54.793,20875.9,1.82459
11305,55.208,21021,1.83737
11390,55.623,21175.6,1.85032
11475,56.0381,21290,1.86397
11560,56.4531,21458.5,1.87893
11645,56.8682,21617.1,1.89332
11730,57.2832,21768.3,1.905587
11815,57.6982,21906,1.91972
11900,58.1133,22060.3,1.93454
11985,58.5283,22220.3,1.94784
12070,58.9434,22377,1.96357
12155,59.3584,22539.3,1.97603
12240,59.7734,22682.3,1.9914
12325,60.1885,22839.2,2.00562
12410,60.6035,22989.8,2.01812
12495,61.0186,23125.1,2.03138
12580,61.4336,23265.9,2.04467
12665,61.8486,23416.1,2.05929
12750,62.2637,23554.9,2.072751
12835,62.6787,23709.6,2.08621
12920,63.09375,23870.7,2.10167
13005,63.5088,24001.6,2.11361
13090,63.9238,24137.5,2.127878
13175,64.3389,24277.6,2.143084
13260,64.7539,24452,2.15673
13345,65.1689,24588.4,2.16863
13430,65.584,24740.3,2.18356
13515,65.999,24880.8,2.196671
13600,66.4141,25024.2,2.21152
13685,66.8291,25165.3,2.22521
13770,67.2441,25314.3,2.23834
13855,67.65918,25448.9,2.25096
13940,68.0742,25590.8,2.26518
14025,68.4893,25720.8,2.28098
14110,68.9043,25879.3,2.29374
14195,69.3193,26015.5,2.307101
14280,69.7344,26179.4,2.322258
14365,70.1494,26327.2,2.33556
14450,70.5645,26477.6,2.350441
14535,70.9795,26620.5,2.364013
14620,71.3945,26756.6,2.37751
14705,71.80957,26894.2,2.39095
14790,72.2246,27043.3,2.40455
14875,72.6396,27190.5,2.41844
14960,73.0547,27334.1,2.43295
15045,73.4697,27474.8,2.44677
15130,73.8848,27600.2,2.45955
15215,74.2998,27766.8,2.4736
15300,74.7148,27884.7,2.48829
15385,75.1299,28039.6,2.49997
15470,75.5449,28184.4,2.51395
15555,75.96,28336.8,2.52937
15640,76.375,28481.4,2.5437
15725,76.79,28616.5,2.55861
15810,77.2051,28761.9,2.5717
15895,77.6201,28897.1,2.584
15980,78.0352,29037.8,2.5998
16065,78.4502,29188,2.61255
16150,78.8652,29328.9,2.62526
16235,79.2803,29462,2.64055
16320,79.6953,29595.2,2.65436
16405,80.1104,29723.5,2.66654
16490,80.5254,29881.3,2.68034
16575,80.94043,30022.9,2.69398
16660,81.3555,30160.2,2.7094
16745,81.7705,30314.6,2.72284
16830,82.1855,30460.9,2.73729
16915,82.6006,30594.7,2.7491
17000,83.0156,30715.4,2.76296
17085,83.4307,30877.6,2.778291
17170,83.8457,31012.5,2.79249
17255,84.2607,31164.4,2.80665
17340,84.6758,31306.1,2.81935
17425,85.09082,31439.5,2.83338
17510,85.5059,31567,2.84721
17595,85.9209,31687.4,2.859885
17680,86.3359,31811.2,2.87575
17765,86.751,31982.3,2.88864
17850,87.166,32136,2.90235
17935,87.5811,32256.3,2.9152
18020,87.9961,32409.9,2.9308
18105,88.4111,32551.1,2.94385
18190,88.8262,32687.1,2.9563
18275,89.2412,32824.5,2.97226
18360,89.65625,32975.5,2.98706
18445,90.0713,33108.1,2.99958
18530,90.4863,33240,3.01226
18615,90.9014,33382.1,3.02699
18700,91.3164,33508.8,3.0411
18785,91.7314,33643.6,3.05416
18870,92.1465,33772.8,3.06744
18955,92.5615,33932.2,3.082109
19040,92.9766,34066.1,3.09658
19125,93.3916,34199.8,3.10904
19210,93.8066,34336.1,3.12529
19295,94.22168,34463.1,3.1373
19380,94.6367,34614.4,3.15203
19465,95.0518,34758.9,3.16516
19550,95.4668,34884.9,3.18057
19635,95.8818,35017.5,3.19433
19720,96.2969,35150.1,3.20738
19805,96.7119,35278.8,3.22061
19890,97.127,35394.8,3.23327
19975,97.542,35530.5,3.24751
20060,97.957,35673.3,3.26126
20145,98.37207,35833.6,3.2773
20230,98.7871,35976.1,3.28904
20315,99.2021,36102.4,3.3038
20400,99.6172,36226.9,3.31693
20485,100.032,36376.3,3.33107
20570,100.447,36514.1,3.34552
20655,100.8623,36648.7,3.35912
20740,101.277,36764.9,3.37219
20825,101.692,36899.6,3.38687
20910,102.107,37038.8,3.40047
20995,102.522,37161.4,3.41331
21080,102.9375,37300,3.42856
21165,103.353,37422.2,3.44185
21250,103.768,37569.8,3.45544
21335,104.183,37693.2,3.46907
21420,104.598,37822.6,3.48288
21505,105.0127,37945.6,3.49782
21590,105.428,38089.6,3.50921
21675,105.843,38222.6,3.52408
21760,106.258,38352.4,3.53918
21845,106.673,38498.3,3.553838
21930,107.088,38620.8,3.56585
22015,107.503,38741.4,3.580972
22100,107.918,38873,3.59516
22185,108.333,39002.9,3.60719
22270,108.748,39137.2,3.6218
22355,109.163,39268.1,3.636
22440,109.578,39392,3.64944
22525,109.993,39510.6,3.66547
22610,110.4082,39642.8,3.67819
22695,110.823,39784.7,3.6913
22780,111.238,39918.3,3.70595
22865,111.653,40043.8,3.71977
22950,112.068,40171.4,3.73308
23035,112.4834,40304.7,3.74601
23120,112.898,40428,3.76104
23205,113.313,40564.3,3.77474
23290,113.729,40686.9,3.78744
23375,114.144,40804.2,3.80117
23460,114.559,40940,3.81556
23545,114.974,41062.1,3.82945
23630,115.389,41190.9,3.84338
23715,115.804,41300.9,3.85665
23800,116.219,41428.1,3.87081
23885,116.634,41561.9,3.88453
23970,117.049,41685.3,3.89918
24055,117.464,41805.7,3.91223
24140,117.879,41941.7,3.92685
24225,118.294,42051.4,3.9398
24310,118.709,42176.9,3.9533
24395,119.124,42298.9,3.9685
24480,119.539,42427.9,3.98198
24565,119.9541,42545.9,3.99459
24650,120.369,42675.6,4.00979
24735,120.784,42782.3,4.02312
24820,121.199,42898.5,4.03595
24905,121.614,43010.5,4.04918
24990,122.0293,43130.3,4.0645
25075,122.444,43249.6,4.07755
25160,122.859,43370.2,4.09282
25245,123.274,43494.2,4.105638
25284,123.465,10869.1,4.38634