File: ASM109_2021_data/MTS/Quasi/MTS_quasi_3.csv
,Time [s],Load [N],Displacement [mm]
0,0.00683594,-354.639,0.000622348
80,0.397461,-134.307,0.0114205
160,0.788086,11.5858,0.0242979
240,1.17871,164.493,0.0352557
320,1.56934,320.738,0.0504247
400,1.95996,501.488,0.0641319
480,2.35059,671.587,0.0760163
560,2.74121,813.363,0.08864712
640,3.13184,984.148,0.102771
720,3.52246,1162.63,0.114841
800,3.91309,1320.53,0.127224
880,4.30371,1465.52,0.140215
960,4.69434,1623.28,0.15305
1040,5.08496,1793.41,0.166288
1120,5.47559,1951.64,0.179679
1200,5.86621,2117.86,0.193172
1280,6.25684,2271.49,0.205353
1360,6.64746,2432.36,0.21857
1440,7.03809,2603.16,0.231508
1520,7.42871,2765.4,0.246159
1600,7.81934,2921.16,0.258463
1680,8.20996,3083.09,0.270414
1760,8.60059,3235.04,0.283877
1840,8.99121,3393.83,0.295801
1920,9.38184,3516.17,0.309373
2000,9.77246,3691.6,0.322113
2080,10.1631,3869.17,0.337021
2160,10.5537,4006.51,0.347637
2240,10.9443,4170.71,0.361761
2320,11.335,4333.63,0.374042
2400,11.7256,4499.27,0.388988
2480,12.1162,4662.73,0.4006995
2560,12.5068,4800.37,0.413441
2640,12.8975,4959.68,0.425819
2720,13.2881,5129.14,0.440941
2800,13.6787,5277.34,0.452861
2880,14.0693,5377.61,0.465171
2960,14.46,5558.05,0.479202
3040,14.8506,5742.6,0.492934
3120,15.2412,5903.89,0.50553
3200,15.6318,6054.86,0.5186733
3280,16.0225,6209.76,0.532274
3360,16.4131,6374.54,0.545524
3440,16.8037,6513.74,0.558275
3520,17.1943,6643.35,0.569016
3600,17.585,6803.78,0.582736
3680,17.9756,6980.12,0.595975
3760,18.3662,7118.01,0.609757
3840,18.7568,7287.01,0.623372
3920,19.1475,7419.39,0.634563
4000,19.5381,7602.15,0.650879
4080,19.9287,7751.9,0.663184
4160,20.3193,7898.58,0.674407
4240,20.71,8041.76,0.688126
4320,21.1006,8198.43,0.700664
4400,21.4912,8351.44,0.714027
4480,21.8818,8502.18,0.726756
4560,22.2725,8622.72,0.739636
4640,22.6631,8804.07,0.752975
4720,23.0537,8965.9,0.766778
4800,23.4443,9104.26,0.779357
4880,23.835,9240.42,0.790952
4960,24.2256,9426.92,0.806333
5040,24.6162,9575.59,0.818506
5120,25.0068,9713.37,0.831166
5200,25.3975,9847.3,0.8425681
5280,25.7881,10003.7,0.8558
5360,26.1787,10160.6,0.870617
5440,26.5693,10304.4,0.882292
5520,26.96,10443.3,0.895197
5600,27.3506,10593.1,0.909926
5680,27.7412,10764.7,0.921924
5760,28.1318,10930.5,0.935227
5840,28.5225,11053.1,0.947967
5920,28.9131,11218.3,0.96109
6000,29.3037,11374.2,0.973915
6080,29.6943,11512.9,0.987691
6160,30.085,11625.3,0.9986465
6240,30.4756,11805.3,1.01152
6320,30.8662,11956.4,1.026518
6400,31.2568,12106.1,1.03826
6480,31.6475,12265.6,1.05142
6560,32.0381,12406.6,1.065452
6640,32.4287,12584.1,1.07977
6720,32.8193,12719.4,1.09277
6800,33.21,12857.9,1.10433
6880,33.6006,12998.9,1.11627
6960,33.9912,13156.8,1.13039
7040,34.3818,13299.9,1.14431
7120,34.7725,13439.4,1.1557
7200,35.1631,13564.7,1.17037
7280,35.5537,13736,1.18242
7360,35.9443,13890.3,1.19368
7440,36.335,14039.3,1.209111
7520,36.7256,14180.2,1.221324
7600,37.1162,14326.2,1.23515
7680,37.5068,14474.9,1.24697
7760,37.8975,14618.2,1.26078
7840,38.2881,14735.2,1.27337
7920,38.6787,14875.5,1.288
8000,39.0693,15045.6,1.30017
8080,39.46,15180.9,1.31144
8160,39.8506,15313.8,1.3252
8240,40.2412,15487.3,1.33785
8320,40.6318,15639.1,1.35223
8400,41.0225,15787.1,1.365006
8480,41.4131,15924.3,1.37687
8560,41.8037,16050.4,1.388851
8640,42.1943,16224.3,1.40449
8720,42.585,16354.1,1.4164
8800,42.9756,16488.8,1.42828
8880,43.3662,16600.2,1.44339
8960,43.7568,16793.7,1.45753
9040,44.1475,16943.8,1.46935
9120,44.5381,17079.2,1.48122
9200,44.9287,17231.9,1.49567
9280,45.3193,17375.5,1.5076
9360,45.71,17521.4,1.52175
9440,46.1006,17644.2,1.53221
9520,46.4912,17782.3,1.54535
9600,46.8818,17950.1,1.55973
9680,47.2725,18081.9,1.57255
9760,47.6631,18224.8,1.58586
9840,48.0537,18367.2,1.599866
9920,48.4443,18511.9,1.6131
10000,48.835,18676.2,1.62535
10080,49.2256,18806,1.63792
10160,49.6162,18924.9,1.65075
10240,50.0068,19083.7,1.66393
10320,50.3975,19245.3,1.67688
10400,50.7881,19358.6,1.68991
10480,51.1787,19478.4,1.70265
10560,51.5693,19625.8,1.71505
10640,51.96,19795.7,1.72881
10720,52.3506,19931,1.74247
10800,52.7412,20058.8,1.75451
10880,53.1318,20212.1,1.76828
10960,53.5225,20362.9,1.78186
11040,53.9131,20498.6,1.79385
11120,54.3037,20620.3,1.80589
11200,54.6943,20770.1,1.81964
11280,55.085,20924.2,1.83282
11360,55.4756,21068.6,1.84736
11440,55.8662,21195,1.858368
11520,56.2568,21346,1.87129
11600,56.6475,21485.1,1.886528
11680,57.0381,21639.7,1.89889
11760,57.4287,21785.8,1.912
11840,57.8193,21893.5,1.92466
11920,58.21,22066.7,1.93744
12000,58.6006,22215.8,1.95143
12080,58.9912,22341.9,1.96342
12160,59.3818,22462.2,1.975845
12240,59.7725,22631.6,1.99032
12320,60.1631,22773.9,2.00315
12400,60.5537,22897.7,2.01612
12480,60.9443,23023,2.02852
12560,61.335,23192.4,2.04269
12640,61.7256,23328.1,2.05463
12720,62.1162,23449.6,2.06725
12800,62.5068,23585.8,2.07924
12880,62.8975,23728.7,2.09279
12960,63.2881,23872,2.10647
13040,63.6787,23988,2.119051
13120,64.0693,24118.6,2.13113
13200,64.46,24262,2.14499
13280,64.8506,24420,2.15834
13360,65.2412,24547.8,2.171391
13440,65.6318,24682.3,2.18367
13520,66.0225,24830.1,2.19821
13600,66.4131,24973.4,2.21318
13680,66.8037,25097.7,2.22343
13760,67.1943,25205.4,2.23579
13840,67.585,25341.1,2.249243
13920,67.9756,25501.2,2.26314
14000,68.3662,25646.2,2.27576
14080,68.7568,25779.9,2.28853
14160,69.1475,25915,2.30222
14240,69.5381,26064.9,2.31589
14320,69.9287,26198.4,2.32859
14400,70.3193,26333.8,2.3409
14480,70.71,26460.3,2.35303
14560,71.1006,26609.9,2.36768
14640,71.4912,26740.8,2.37936
14720,71.8818,26865,2.39268
14800,72.2725,26994.3,2.40488
14880,72.6631,27146,2.41918
14960,73.0537,27285.1,2.433636
15040,73.4443,27405,2.44492
15120,73.835,27520.6,2.45688
15200,74.2256,27701.5,2.47055
15280,74.6162,27831,2.48474
15360,75.0068,27954.3,2.49706
15440,75.3975,28083,2.5096
15520,75.7881,28233.9,2.52375
15600,76.1787,28362.8,2.53602
15680,76.5693,28498.6,2.547924
15760,76.96,28617.3,2.56214
15840,77.3506,28752.7,2.57494
15920,77.7412,28906.4,2.58922
16000,78.1318,29035.2,2.60103
16080,78.5225,29162.5,2.61434
16160,78.9131,29308.6,2.625752
16240,79.3037,29455,2.64144
16320,79.6943,29573.6,2.65458
16400,80.085,29682.7,2.66498
16480,80.4756,29827.1,2.68031
16560,80.8662,29977,2.69234
16640,81.2568,30089.3,2.7059
16720,81.6475,30236.4,2.71811
16800,82.0381,30375.4,2.73258
16880,82.4287,30518.5,2.74565
16960,82.8193,30663.1,2.75865
17040,83.21,30771.1,2.7711
17120,83.6006,30907.2,2.78266
17200,83.9912,31050.3,2.79654
17280,84.3818,31188.8,2.81112
17360,84.7725,31310.3,2.82233
17440,85.1631,31438.9,2.83586
17520,85.5537,31580,2.84922
17600,85.9443,31727.6,2.86297
17680,86.335,31844.7,2.87587
17760,86.7256,31970.4,2.88832
17840,87.1162,32115.4,2.90192
17920,87.5068,32245,2.9148
18000,87.8975,32367.3,2.92623
18080,88.2881,32496.9,2.94065
18160,88.6787,32628.9,2.95264
18240,89.0693,32766.7,2.96639
18320,89.46,32890.1,2.97805
18400,89.8506,33021,2.99245
18480,90.2412,33156.5,3.00456
18560,90.6318,33305.7,3.0188
18640,91.0225,33433.7,3.03201
18720,91.4131,33546.1,3.04358
18800,91.8037,33691,3.05813
18880,92.1943,33816.2,3.071491
18960,92.585,33950.3,3.081907
19040,92.9756,34042.6,3.09338
19120,93.3662,34195.2,3.1093
19200,93.7568,34324,3.12134
19280,94.1475,34464.2,3.133939
19360,94.5381,34580.4,3.14771
19440,94.9287,34715.7,3.161484
19520,95.3193,34848.4,3.1744
19600,95.71,34980.8,3.18698
19680,96.1006,35095.4,3.19875
19760,96.4912,35225.7,3.21248
19840,96.8818,35362.4,3.22674
19920,97.2725,35488.2,3.23914
20000,97.6631,35605.2,3.25166
20080,98.0537,35732.1,3.26387
20160,98.4443,35882.5,3.27862
20240,98.835,36015.2,3.29037
20320,99.2256,36141.5,3.30442
20400,99.6162,36239,3.31588
20480,100.007,36390.9,3.33037
20560,100.397,36525.3,3.34315
20640,100.788,36645.9,3.355197
20720,101.179,36758.6,3.36896
20800,101.569,36884.7,3.38109
20880,101.96,37026.8,3.39531
20960,102.351,37110.1,3.40876
21040,102.741,37232.2,3.42146
21120,103.132,37365.5,3.4355
21200,103.522,37499.7,3.44934
21280,103.913,37630.2,3.46153
21360,104.304,37725.2,3.4732
21440,104.694,37864.6,3.48798
21520,105.085,37984.5,3.5014
21600,105.476,38121.5,3.51343
21680,105.866,38234.8,3.52502
21760,106.257,38356.6,3.53778
21840,106.647,38488.2,3.55282
21920,107.038,38607.6,3.56547
22000,107.429,38728.9,3.5772
22080,107.819,38840.2,3.59022
22160,108.21,38980,3.60475
22240,108.601,39100.4,3.61626
22320,108.991,39213.1,3.62802
22400,109.382,39336.4,3.64119
22480,109.772,39460.8,3.65603
22560,110.163,39589.4,3.66925
22640,110.554,39708.5,3.68127
22720,110.944,39837.3,3.69452
22800,111.335,39962.1,3.70779
22880,111.726,40081.8,3.72083
22960,112.116,40198.4,3.73298
23040,112.507,40315.7,3.74791
23120,112.897,40452.6,3.75949
23200,113.288,40571,3.772845
23280,113.679,40686.6,3.78581
23360,114.069,40788,3.79772
23440,114.46,40918.2,3.81138
23520,114.851,41041.4,3.82509
23600,115.241,41166.5,3.83742
23680,115.632,41276.4,3.84895
23760,116.022,41400.2,3.8638
23780,116.12,4729.26,3.93897