File: ASM109_2021_data/MTS/Quasi/MTS_quasi_9.csv
,Time [s],Load [N],Displacement [mm]
0,0.0078125,-325.326,0.000979453
80,0.3984375,-140.284,0.0125317
160,0.7890625,-0.130361,0.02432
240,1.17969,160.715,0.036512
320,1.57031,350.392,0.0512382
400,1.96094,496.883,0.0636828
480,2.35156,654.443,0.0759512
560,2.74219,800.277,0.0884646
640,3.13281,972.069,0.101868
720,3.52344,1133.45,0.11485
800,3.91406,1293.3,0.1282306
880,4.30469,1430.02,0.1400739
960,4.69531,1609.58,0.153232
1040,5.08594,1760.79,0.167561
1120,5.47656,1930.5,0.179856
1200,5.86719,2069.88,0.191339
1280,6.25781,2250.38,0.2073893
1360,6.64844,2390.66,0.219455
1440,7.03906,2537.48,0.23128
1520,7.42969,2683.54,0.243869
1600,7.82031,2837.99,0.257657
1680,8.21094,3019.42,0.270552
1760,8.60156,3173.1,0.2843602
1840,8.99219,3332.01,0.297529
1920,9.38281,3484.81,0.309952
2000,9.77344,3651.68,0.3239809
2080,10.1641,3801.64,0.336467
2160,10.5547,3941.61,0.348309
2240,10.9453,4112.29,0.363723
2320,11.3359,4261.21,0.374834
2400,11.7266,4413.7,0.38827
2480,12.1172,4557.43,0.40045
2560,12.5078,4702.34,0.414316
2640,12.8984,4890.99,0.427649
2720,13.2891,5026.76,0.438852
2800,13.6797,5191.82,0.453355
2880,14.0703,5326.13,0.466032
2960,14.4609,5494.73,0.478003
3040,14.8516,5654.64,0.49167
3120,15.2422,5777.9,0.503335
3200,15.6328,5935.53,0.517822
3280,16.0234,6110.66,0.530136
3360,16.4141,6251.28,0.543864
3440,16.8047,6407.34,0.556204
3520,17.1953,6543.9,0.5697186
3600,17.5859,6712.98,0.583331
3680,17.9766,6882.87,0.597584
3760,18.3672,7019.4,0.608635
3840,18.7578,7166.72,0.622586
3920,19.1484,7334.01,0.635187
4000,19.5391,7482.91,0.647898
4080,19.9297,7628.23,0.6622
4160,20.3203,7758.75,0.674053
4240,20.7109,7925.33,0.687684
4320,21.1016,8080.51,0.701132
4400,21.4922,8229.59,0.713491
4480,21.8828,8375.71,0.726632
4560,22.2734,8537.69,0.740823
4640,22.6641,8693.12,0.754152
4720,23.0547,8853.39,0.766292
4800,23.4453,8970.49,0.777423
4880,23.8359,9115.07,0.791751
4960,24.2266,9279.96,0.804593
5040,24.6172,9434.53,0.818729
5120,25.0078,9557.09,0.83075
5200,25.3984,9725.59,0.8437885
5280,25.7891,9895.07,0.859026
5360,26.1797,10040.4,0.870937
5440,26.5703,10183.6,0.883256
5520,26.9609,10328.1,0.89651
5600,27.3516,10486.7,0.909538
5680,27.7422,10632,0.922704
5760,28.1328,10743.3,0.934972
5840,28.5234,10889.1,0.94799
5920,28.9141,11065.3,0.961496
6000,29.3047,11207,0.973734
6080,29.6953,11358.1,0.9878124
6160,30.0859,11488.5,0.999678
6240,30.4766,11653,1.01461
6320,30.8672,11812.6,1.02607
6400,31.2578,11943.9,1.03793
6480,31.6484,12066.3,1.05043
6560,32.0391,12225,1.06498
6640,32.4297,12382.7,1.07754
6720,32.8203,12528,1.09227
6800,33.2109,12648.7,1.10393
6880,33.6016,12785.5,1.11777
6960,33.9922,12966.5,1.13196
7040,34.3828,13110.2,1.14395
7120,34.7734,13245.6,1.15515
7200,35.1641,13386.9,1.17014
7280,35.5547,13546.7,1.18391
7360,35.9453,13687.3,1.195165
7440,36.3359,13804.4,1.20727
7520,36.7266,13969.4,1.22181
7600,37.1172,14099.9,1.23513
7680,37.5078,14258.2,1.2478
7760,37.8984,14392.7,1.25873
7840,38.2891,14537.5,1.27272
7920,38.6797,14689.6,1.28595
8000,39.0703,14844.7,1.30048
8080,39.4609,14964.1,1.31029
8160,39.8516,15105.7,1.32474
8240,40.2422,15265.1,1.33839
8320,40.6328,15407.9,1.35123
8400,41.0234,15535.5,1.36217
8480,41.4141,15670.2,1.37662
8560,41.8047,15829.6,1.39052
8640,42.1953,15972.1,1.40281
8720,42.5859,16111.8,1.41554
8800,42.9766,16265.5,1.42734
8880,43.3672,16416.7,1.44301
8960,43.7578,16557.3,1.45657
9040,44.1484,16692.7,1.46986
9120,44.5391,16816.8,1.48065
9200,44.9297,16964.3,1.49416
9280,45.3203,17114.8,1.50748
9360,45.7109,17234.4,1.52004
9440,46.1016,17386.8,1.53275
9520,46.4922,17526,1.54693
9600,46.8828,17682.9,1.55986
9680,47.2734,17828.5,1.57221
9760,47.6641,17947.1,1.586
9840,48.0547,18100.7,1.598276
9920,48.4453,18262.2,1.61267
10000,48.8359,18397.4,1.6265
10080,49.2266,18502.5,1.6373
10160,49.6172,18648.2,1.65251
10240,50.0078,18813.2,1.66616
10320,50.3984,18952.7,1.67825
10400,50.7891,19080.2,1.690114
10480,51.1797,19225.5,1.70487
10560,51.5703,19376.2,1.71606
10640,51.9609,19519,1.73017
10720,52.3516,19631.7,1.74145
10800,52.7422,19778.8,1.75618
10880,53.1328,19931,1.7695
10960,53.5234,20075.2,1.78187
11040,53.9141,20190.5,1.79319
11120,54.3047,20325.1,1.80805
11200,54.6953,20486.3,1.82117
11280,55.0859,20633.5,1.83465
11360,55.4766,20758.4,1.8468
11440,55.8672,20889.6,1.86036
11520,56.2578,21044.2,1.87346
11600,56.6484,21181.2,1.88652
11680,57.0391,21310.7,1.89767
11760,57.4297,21443.5,1.91092
11840,57.8203,21576.8,1.92338
11920,58.2109,21723.9,1.93907
12000,58.6016,21859.3,1.95142
12080,58.9922,21988.7,1.96215
12160,59.3828,22137.7,1.97683
12240,59.7734,22275.7,1.99061
12320,60.1641,22395,2.00201
12400,60.5547,22540.5,2.01621
12480,60.9453,22666.9,2.02943
12560,61.3359,22821.3,2.04266
12640,61.7266,22948.4,2.05405
12720,62.1172,23067.3,2.06628
12800,62.5078,23207.9,2.08164
12880,62.8984,23372.6,2.09562
12960,63.2891,23516.2,2.10857
13040,63.6797,23625.4,2.12073
13120,64.0703,23748.6,2.13477
13200,64.4609,23914.6,2.14816
13280,64.8516,24040.2,2.15959
13360,65.2422,24147.2,2.17129
13440,65.6328,24272.2,2.18588
13520,66.0234,24418.1,2.1988
13600,66.4141,24569.9,2.21097
13680,66.8047,24697.5,2.22349
13760,67.1953,24821.7,2.23776
13840,67.5859,24968.7,2.25067
13920,67.9766,25096.6,2.26365
14000,68.3672,25238.4,2.2756
14080,68.7578,25357.9,2.28857
14160,69.1484,25486.2,2.30206
14240,69.5391,25641.4,2.31559
14320,69.9297,25752.8,2.32761
14400,70.3203,25865.7,2.34115
14480,70.7109,26005.4,2.35424
14560,71.1016,26170.1,2.36926
14640,71.4922,26288.9,2.38068
14720,71.8828,26414.4,2.39433
14800,72.2734,26555.8,2.40701
14880,72.6641,26690.6,2.41931
14960,73.0547,26820.9,2.432241
15040,73.4453,26926.6,2.444505
15120,73.8359,27073.6,2.45757
15200,74.2266,27213.8,2.47187
15280,74.6172,27340.3,2.48476
15360,75.0078,27465.5,2.49708
15440,75.3984,27600.9,2.50902
15520,75.7891,27731.4,2.52365
15600,76.1797,27861.1,2.53697
15680,76.5703,27981.4,2.5491
15760,76.9609,28109.6,2.56291
15840,77.3516,28254.7,2.57731
15920,77.7422,28373.8,2.58834
16000,78.1328,28503.7,2.60049
16080,78.5234,28620,2.61396
16160,78.9141,28755.5,2.627537
16240,79.3047,28861.5,2.640029
16320,79.6953,29020.6,2.65385
16400,80.0859,29125.3,2.66633
16480,80.4766,29292.8,2.67913
16560,80.8672,29422.8,2.69246
16640,81.2578,29538.1,2.705718
16720,81.6484,29656.6,2.71706
16800,82.0391,29783.3,2.73168
16880,82.4297,29923.5,2.74527
16960,82.8203,30040.7,2.75853
17040,83.2109,30151.8,2.76982
17120,83.6016,30287.5,2.78224
17200,83.9922,30421.4,2.79762
17280,84.3828,30551.1,2.81048
17360,84.7734,30652.9,2.82254
17440,85.1641,30807.9,2.83785
17520,85.5547,30929.9,2.84887
17600,85.9453,31057.1,2.86277
17680,86.3359,31141.5,2.87476
17760,86.7266,31295.4,2.88714
17840,87.1172,31421.8,2.90051
17920,87.5078,31544.7,2.91421
18000,87.8984,31667.5,2.92592
18080,88.2891,31795.2,2.93994
18160,88.6797,31928.8,2.95345
18240,89.0703,32051.4,2.96678
18320,89.4609,32164.2,2.978143
18400,89.8516,32296.8,2.99282
18480,90.2422,32426,3.00577
18560,90.6328,32544.4,3.01827
18640,91.0234,32652.6,3.02966
18720,91.4141,32767,3.04314
18800,91.8047,32917.6,3.057142
18880,92.1953,33040.4,3.07144
18960,92.5859,33160.8,3.08378
19040,92.9766,33288.5,3.09691
19120,93.3672,33414.7,3.10971
19200,93.7578,33544.7,3.12379
19280,94.1484,33663.8,3.13493
19360,94.5391,33773.4,3.14727
19440,94.9297,33888.6,3.16146
19520,95.3203,34023.8,3.17441
19600,95.7109,34126.9,3.18689
19680,96.1016,34246.3,3.1998
19760,96.4922,34385.2,3.21299
19840,96.8828,34505.5,3.22783
19920,97.2734,34630.3,3.23974
20000,97.6641,34741.3,3.25287
20080,98.0547,34868.5,3.2649
20160,98.4453,34988.9,3.27833
20240,98.8359,35112,3.29308
20320,99.2266,35206.8,3.30201
20400,99.6172,35321.9,3.31908
20480,100.008,35457.5,3.330292
20560,100.398,35585.8,3.34355
20640,100.789,35702.8,3.35619
20720,101.18,35816.5,3.36952
20800,101.57,35939.7,3.38368
20880,101.961,36061.4,3.39643
20960,102.352,36170.5,3.40855
21040,102.742,36294.9,3.42089
21120,103.133,36407.7,3.43364
21200,103.523,36526.6,3.44676
21280,103.914,36631.5,3.459594
21360,104.305,36749,3.4743
21440,104.695,36882,3.48686
21520,105.086,36989.5,3.49995
21600,105.477,37104.5,3.51162
21680,105.867,37233,3.525496
21760,106.258,37351,3.53917
21840,106.648,37474.5,3.5505
21920,107.039,37583.6,3.564743
22000,107.43,37688.2,3.5766
22080,107.82,37809.5,3.58995
22160,108.211,37925.3,3.60417
22240,108.602,38037.7,3.61587
22320,108.992,38140,3.62778
22400,109.383,38280.8,3.64324
22480,109.773,38394.8,3.65616
22560,110.164,38496.2,3.66812
22640,110.555,38604.3,3.68221
22720,110.945,38712.2,3.69427
22800,111.336,38825.8,3.7087
22880,111.727,38932.7,3.72112
22960,112.117,38998.3,3.73411
23040,112.508,39133.2,3.74693
23120,112.898,39269.8,3.76008
23200,113.289,39374.4,3.77314
23280,113.68,39491.2,3.78717
23360,114.07,39592.2,3.7993
23440,114.461,39725.4,3.81354
23520,114.852,39825.6,3.82552
23600,115.242,39942.5,3.83964
23680,115.633,40041,3.85088
23760,116.023,40158.6,3.86436
23840,116.414,40264.6,3.87754
23875,116.585,-3362.54,4.02938