File: ASM109_2021_data/MTS/Quasi/MTS_quasi_6.csv
,Time [s],Load [N],Displacement [mm]
0,0.0078125,-305.857,-7.59959e-05
81,0.40332,-157.698,0.0109743
162,0.798828,32.43,0.0250666
243,1.19434,224.565,0.0371633
324,1.58984,391.627,0.0493079
405,1.98535,546.952,0.0638343
486,2.38086,670.898,0.0767805
567,2.77637,864.171,0.0896099
648,3.171875,1050.41,0.103234
729,3.56738,1211.79,0.117786
810,3.96289,1382.5,0.127889
891,4.3584,1547.64,0.141657
972,4.75391,1720.19,0.15635
1053,5.14941,1895.75,0.168747
1134,5.54492,2070.35,0.182278
1215,5.94043,2229.11,0.195958
1296,6.33594,2380.27,0.208291
1377,6.73145,2538.07,0.223254
1458,7.12695,2725.51,0.235304
1539,7.52246,2876.4,0.246689
1620,7.91797,3033.07,0.259592
1701,8.31348,3186.47,0.274187
1782,8.70898,3367.99,0.288201
1863,9.10449,3539.23,0.299826
1944,9.5,3706.27,0.314903
2025,9.89551,3835.44,0.326319
2106,10.291,3999.55,0.339446
2187,10.6865,4174.6,0.353403
2268,11.082,4337.8,0.365596
2349,11.4775,4500.19,0.378327
2430,11.873,4611.12,0.392751
2511,12.2686,4813.53,0.405741
2592,12.6641,4986.76,0.417738
2673,13.0596,5161.75,0.433115
2754,13.4551,5314.4,0.447025
2835,13.8506,5447.09,0.458734
2916,14.2461,5631.39,0.472761
2997,14.6416,5808.63,0.485502
3078,15.0371,5951.66,0.49881
3159,15.4326,6095.62,0.510859
3240,15.8281,6265.25,0.524797
3321,16.2236,6433.01,0.538934
3402,16.6191,6604.73,0.551466
3483,17.0146,6759.71,0.564724
3564,17.4102,6890.04,0.57589
3645,17.8057,7072.47,0.590897
3726,18.2012,7240.65,0.602856
3807,18.59668,7406.75,0.617492
3888,18.9922,7564.64,0.630849
3969,19.3877,7696.13,0.643219
4050,19.7832,7851.97,0.655157
4131,20.1787,8024.9,0.669978
4212,20.5742,8180.45,0.682417
4293,20.9697,8338.62,0.695721
4374,21.3652,8471.2,0.708214
4455,21.7607,8627.55,0.721569
4536,22.15625,8812.97,0.733678
4617,22.5518,8971.18,0.74882
4698,22.9473,9122.65,0.761796
4779,23.3428,9281.03,0.773968
4860,23.7383,9435.74,0.787442
4941,24.1338,9604.71,0.801848
5022,24.5293,9762.88,0.815856
5103,24.9248,9910.44,0.827546
5184,25.3203,10061.3,0.8398971
5265,25.71582,10217.3,0.853412
5346,26.1113,10388.1,0.868464
5427,26.5068,10533.1,0.879832
5508,26.9023,10650.6,0.892698
5589,27.2979,10830.2,0.906322
5670,27.6934,10993.4,0.919298
5751,28.0889,11148.9,0.933076
5832,28.4844,11310.2,0.945382
5913,28.8799,11435.1,0.958125
5994,29.2754,11597.5,0.972502
6075,29.6709,11766.7,0.985783
6156,30.0664,11925.2,1.00079
6237,30.4619,12061.7,1.01164
6318,30.8574,12203.4,1.02564
6399,31.25293,12393.7,1.03902
6480,31.6484,12556.7,1.05142
6561,32.0439,12714.1,1.0674
6642,32.4395,12859.8,1.07945
6723,32.835,13002.5,1.09102
6804,33.2305,13163,1.10543
6885,33.626,13326.7,1.11913
6966,34.0215,13485.3,1.13241
7047,34.417,13625.6,1.14404
7128,34.8125,13772.7,1.1573
7209,35.208,13920.2,1.17115
7290,35.6035,14070.8,1.18382
7371,35.999,14219.6,1.19771
7452,36.3945,14361.6,1.20848
7533,36.79,14495.9,1.22422
7614,37.1855,14666.7,1.23783
7695,37.5811,14830.1,1.25245
7776,37.9766,14956.5,1.26172
7857,38.37207,15101.9,1.2764
7938,38.7676,15246.2,1.28971
8019,39.1631,15426.8,1.3027
8100,39.5586,15582.5,1.31651
8181,39.9541,15728.4,1.3292
8262,40.3496,15868.1,1.3411
8343,40.7451,16025.9,1.35489
8424,41.1406,16185.3,1.3685
8505,41.5361,16335.1,1.38205
8586,41.9316,16454.1,1.39358
8667,42.3271,16618.8,1.40654
8748,42.7227,16765.9,1.4223
8829,43.1182,16940.6,1.43523
8910,43.5137,17091.1,1.44844
8991,43.90918,17227.7,1.460731
9072,44.3047,17367.2,1.47346
9153,44.7002,17536.4,1.48812
9234,45.0957,17676.4,1.50068
9315,45.4912,17833.4,1.51308
9396,45.8867,17955.5,1.5257
9477,46.2822,18111.1,1.53873
9558,46.6777,18260.1,1.55311
9639,47.0732,18402.9,1.56644
9720,47.46875,18562.7,1.57864
9801,47.8643,18705.1,1.59134
9882,48.2598,18846.6,1.60584
9963,48.6553,19009.3,1.61932
10044,49.0508,19184.2,1.63238
10125,49.4463,19320.4,1.64653
10206,49.8418,19454.2,1.66021
10287,50.2373,19600.5,1.67061
10368,50.6328,19764.3,1.68581
10449,51.02832,19920.2,1.69963
10530,51.4238,20059.2,1.71143
10611,51.8193,20191.7,1.72391
10692,52.2148,20362.6,1.73867
10773,52.6104,20509.5,1.75012
10854,53.0059,20649.6,1.76421
10935,53.4014,20778.8,1.77587
11016,53.7969,20906.1,1.78999
11097,54.1924,21090.5,1.80321
11178,54.5879,21229.8,1.81663
11259,54.9834,21360.7,1.82844
11340,55.3789,21499,1.84114
11421,55.7744,21623.2,1.855579
11502,56.1699,21808.3,1.86843
11583,56.5654,21960.9,1.88175
11664,56.9609,22104.4,1.8951
11745,57.3564,22230.3,1.90827
11826,57.752,22382,1.922341
11907,58.1475,22550.1,1.93482
11988,58.543,22692.6,1.94879
12069,58.9385,22840.7,1.96225
12150,59.334,22964.9,1.97383
12231,59.7295,23127.7,1.98743
12312,60.125,23279.4,2.00131
12393,60.5205,23439.8,2.01558
12474,60.916,23578.8,2.03056
12555,61.3115,23716.4,2.04142
12636,61.707,23878.2,2.057477
12717,62.1025,24023.1,2.07018
12798,62.498,24160.5,2.08198
12879,62.8936,24271.6,2.0929
12960,63.2891,24410.4,2.10613
13041,63.6846,24568.7,2.12133
13122,64.0801,24723.2,2.13502
13203,64.4756,24858.8,2.14733
13284,64.8711,24955.3,2.15929
13365,65.2666,25118.7,2.17299
13446,65.6621,25278.4,2.18784
13527,66.0576,25427.6,2.19929
13608,66.4531,25567.2,2.21131
13689,66.8486,25701.4,2.2253
13770,67.2441,25848.8,2.2384
13851,67.6396,26003.6,2.25403
13932,68.0352,26149.6,2.26647
14013,68.4307,26283.1,2.27905
14094,68.8262,26396.6,2.29229
14175,69.22168,26568.1,2.30445
14256,69.6172,26709.1,2.31878
14337,70.0127,26840,2.33129
14418,70.4082,26976.3,2.34508
14499,70.8037,27112.6,2.3567
14580,71.1992,27250.5,2.37088
14661,71.5947,27406.3,2.38361
14742,71.9902,27552.1,2.39762
14823,72.3857,27695.3,2.409811
14904,72.78125,27810.6,2.42128
14985,73.1768,27951.8,2.43771
15066,73.5723,28113.3,2.44993
15147,73.9678,28240.8,2.46367
15228,74.3633,28379.9,2.47451
15309,74.7588,28515.1,2.48807
15390,75.1543,28659.8,2.50229
15471,75.5498,28810.8,2.51452
15552,75.9453,28943.6,2.52981
15633,76.34082,29071.2,2.5415
15714,76.7363,29206.1,2.555903
15795,77.1318,29362.2,2.56902
15876,77.5273,29498.5,2.58099
15957,77.9229,29628.1,2.59494
16038,78.3184,29760.7,2.60742
16119,78.7139,29920.4,2.622
16200,79.1094,30063.5,2.63646
16281,79.5049,30198.7,2.64836
16362,79.9004,30328.6,2.661304
16443,80.2959,30464.1,2.67363
16524,80.6914,30601.2,2.68713
16605,81.0869,30743.6,2.7014
16686,81.4824,30876,2.71346
16767,81.87793,31009.6,2.72574
16848,82.2734,31113.4,2.73785
16929,82.6689,31267.3,2.75318
17010,83.0645,31421.5,2.7664
17091,83.46,31548.4,2.779
17172,83.8555,31695.1,2.79162
17253,84.251,31817,2.8045
17334,84.6465,31968.1,2.81868
17415,85.042,32108.2,2.83352
17496,85.4375,32246.1,2.84455
17577,85.833,32363.8,2.8576
17658,86.2285,32514.4,2.87172
17739,86.624,32647.9,2.88386
17820,87.0195,32787.3,2.89725
17901,87.415,32926.7,2.91091
17982,87.8105,33067.6,2.9246
18063,88.2061,33203.6,2.93741
18144,88.6016,33331.7,2.94942
18225,88.99707,33463.1,2.96425
18306,89.3926,33612.5,2.97749
18387,89.7881,33740.7,2.98843
18468,90.1836,33850.2,3.00148
18549,90.5791,33984.3,3.01639
18630,90.9746,34120.7,3.02853
18711,91.3701,34257.8,3.04218
18792,91.7656,34373.4,3.05357
18873,92.1611,34514.7,3.067764
18954,92.5566,34660.8,3.08146
19035,92.9521,34814,3.0958
19116,93.3477,34928.6,3.106868
19197,93.7432,35056.7,3.12091
19278,94.1387,35190.1,3.13337
19359,94.53418,35337.4,3.14812
19440,94.9297,35467.2,3.16001
19521,95.3252,35593,3.17404
19602,95.7207,35723.1,3.186502
19683,96.1162,35860,3.20051
19764,96.5117,36006.3,3.21282
19845,96.9072,36133.1,3.22637
19926,97.3027,36251.4,3.23966
20007,97.6982,36370.6,3.25172
20088,98.09375,36511.3,3.26557
20169,98.4893,36649.1,3.28
20250,98.8848,36768.8,3.29242
20331,99.2803,36903.1,3.30557
20412,99.6758,37018.9,3.31656
20493,100.071,37136.7,3.33119
20574,100.4668,37283.5,3.34669
20655,100.8623,37404.4,3.35854
20736,101.258,37531.8,3.3703
20817,101.653,37653.9,3.38364
20898,102.049,37786.8,3.39839
20979,102.444,37933.8,3.41221
21060,102.84,38060.4,3.42377
21141,103.235,38177,3.43802
21222,103.631,38297.7,3.45078
21303,104.026,38425,3.4632
21384,104.422,38557.6,3.47716
21465,104.817,38673.9,3.49099
21546,105.213,38784.6,3.50236
21627,105.6084,38914.7,3.51529
21708,106.004,39043.7,3.52918
21789,106.399,39154.5,3.54327
21870,106.795,39277.3,3.55705
21951,107.19,39378.5,3.56887
22032,107.586,39507.1,3.58239
22113,107.981,39626.5,3.59518
22194,108.377,39755.6,3.60886
22275,108.772,39868.9,3.6224
22356,109.168,39984.8,3.63466
22437,109.563,40095.6,3.6487
22518,109.959,40227.2,3.66238
22599,110.354,40350.3,3.67607
22680,110.75,40452.2,3.68763
22761,111.146,40576.9,3.7017
22842,111.541,40681.1,3.71405
22923,111.937,40825.2,3.72683
23004,112.332,40928.9,3.74153
23085,112.728,41060.6,3.75409
23166,113.123,41171.2,3.7661
23247,113.519,41293,3.78003
23328,113.914,41417.1,3.79395
23409,114.31,41531.7,3.806565
23490,114.705,41643.6,3.81977
23571,115.101,41746.1,3.83212
23652,115.496,41868.5,3.84585
23733,115.8916,41994.6,3.85777
23814,116.287,42112.8,3.87277
23895,116.683,42225.8,3.88454
23976,117.078,42344.7,3.89829
24057,117.474,42453.2,3.91199
24138,117.869,42580.3,3.92619
24206,118.201,6020.1,4.06396