File: ASM109_2021_data/MTS/Quasi/MTS_quasi_5.csv
,Time [s],Load [N],Displacement [mm]
0,0.0078125,-216.879,0.000116676
80,0.3984375,-43.0835,0.0111772
160,0.7890625,110.326,0.0244148
240,1.17969,284.925,0.0380118
320,1.57031,449.396,0.0509414
400,1.96094,594.771,0.0612549
480,2.35156,736.683,0.0748269
560,2.74219,927.056,0.0892858
640,3.13281,1075.64,0.101599
720,3.52344,1246.43,0.115722
800,3.91406,1394.37,0.128025
880,4.30469,1571.8,0.1419425
960,4.69531,1737.82,0.15496
1040,5.08594,1890.39,0.167797
1120,5.47656,2036.58,0.178571
1200,5.86719,2224.99,0.194472
1280,6.25781,2379.53,0.207174
1360,6.64844,2520.68,0.217014
1440,7.03906,2652.57,0.230786
1520,7.42969,2826.73,0.245837
1600,7.82031,3011.54,0.257978
1680,8.21094,3166.16,0.272073
1760,8.60156,3307.43,0.283774
1840,8.99219,3489.87,0.298055
1920,9.38281,3655.76,0.3113611
2000,9.77344,3806.64,0.322661
2080,10.1641,3938.33,0.335037
2160,10.5547,4090.25,0.348706
2240,10.9453,4281.27,0.363594
2320,11.3359,4433.43,0.376291
2400,11.7266,4571.51,0.387017
2480,12.1172,4723.86,0.400827
2560,12.5078,4912.25,0.415849
2640,12.8984,5067.59,0.428291
2720,13.2891,5223.43,0.4394795
2800,13.6797,5374.92,0.45381
2880,14.0703,5543.44,0.466028
2960,14.4609,5687.97,0.479836
3040,14.8516,5830.25,0.490361
3120,15.2422,5968.89,0.504796
3200,15.6328,6150.28,0.519098
3280,16.0234,6295.73,0.53167
3360,16.4141,6457.22,0.544697
3440,16.8047,6615.48,0.558054
3520,17.1953,6789.88,0.571156
3600,17.5859,6934.47,0.58404
3680,17.9766,7082.59,0.5974071
3760,18.3672,7206.29,0.608229
3840,18.7578,7393.26,0.6224947
3920,19.1484,7551.87,0.636494
4000,19.5391,7701.66,0.648829
4080,19.9297,7824.44,0.661433
4160,20.3203,7993.52,0.673715
4240,20.7109,8174.87,0.688528
4320,21.1016,8316.1,0.7008009
4400,21.4922,8450.16,0.71383
4480,21.8828,8609.18,0.727064
4560,22.2734,8782.06,0.740395
4640,22.6641,8923.1,0.754773
4720,23.0547,9039.34,0.765008
4800,23.4453,9216.44,0.778764
4880,23.8359,9375.03,0.791623
4960,24.2266,9519.21,0.805385
5040,24.6172,9670.1,0.817397
5120,25.0078,9823.76,0.830928
5200,25.3984,9982.6,0.845479
5280,25.7891,10124.5,0.858978
5360,26.1797,10274.8,0.871756
5440,26.5703,10412.9,0.882606
5520,26.9609,10581.2,0.897463
5600,27.3516,10717.8,0.909518
5680,27.7422,10847.1,0.921526
5760,28.1328,11007.1,0.934715
5840,28.5234,11179.1,0.948898
5920,28.9141,11320.3,0.962044
6000,29.3047,11460.4,0.972726
6080,29.6953,11622.2,0.987369
6160,30.0859,11777.8,1.00011
6240,30.4766,11924.8,1.01394
6320,30.8672,12037.6,1.0247
6400,31.2578,12165.6,1.038136
6480,31.6484,12352.4,1.05231
6560,32.0391,12510.9,1.06679
6640,32.4297,12651.4,1.07625
6720,32.8203,12788.2,1.09108
6800,33.2109,12936.4,1.1044
6880,33.6016,13101.3,1.11835
6960,33.9922,13244,1.13019
7040,34.3828,13377.9,1.143
7120,34.7734,13537.7,1.15609
7200,35.1641,13693.7,1.17046
7280,35.5547,13833,1.18306
7360,35.9453,13928,1.19405
7440,36.3359,14096.8,1.20709
7520,36.7266,14263.3,1.22201
7600,37.1172,14408.7,1.23352
7680,37.5078,14546.1,1.24723
7760,37.8984,14701.7,1.26195
7840,38.2891,14867.9,1.27458
7920,38.6797,15010.8,1.28822
8000,39.0703,15138.1,1.30015
8080,39.4609,15264.1,1.31167
8160,39.8516,15438.7,1.32734
8240,40.2422,15578.2,1.33912
8320,40.6328,15716.8,1.35074
8400,41.0234,15851.8,1.36305
8480,41.4141,16018.6,1.37927
8560,41.8047,16166.9,1.39118
8640,42.1953,16310.3,1.40335
8720,42.5859,16435.5,1.4159
8800,42.9766,16584.6,1.43122
8880,43.3672,16738.6,1.44292
8960,43.7578,16885.5,1.45602
9040,44.1484,16999.9,1.46732
9120,44.5391,17138.9,1.48009
9200,44.9297,17304.3,1.49554
9280,45.3203,17455.3,1.50712
9360,45.7109,17578.5,1.51999
9440,46.1016,17746.8,1.53446
9520,46.4922,17894.8,1.54702
9600,46.8828,18032.9,1.55991
9680,47.2734,18165.1,1.57216
9760,47.6641,18322.4,1.5857
9840,48.0547,18459.5,1.59907
9920,48.4453,18600.7,1.61169
10000,48.8359,18716.2,1.62448
10080,49.2266,18871.9,1.63775
10160,49.6172,19028.6,1.65093
10240,50.0078,19175.3,1.66417
10320,50.3984,19302.3,1.67586
10400,50.7891,19442.2,1.68909
10480,51.1797,19600.5,1.70253
10560,51.5703,19740.8,1.71723
10640,51.9609,19860.8,1.72791
10720,52.3516,19988.3,1.74066
10800,52.7422,20169.5,1.755078
10880,53.1328,20297.3,1.76777
10960,53.5234,20448.5,1.78073
11040,53.9141,20564,1.79434
11120,54.3047,20726.9,1.80894
11200,54.6953,20874.4,1.8214
11280,55.0859,20998,1.83337
11360,55.4766,21148.2,1.84594
11440,55.8672,21284.9,1.86079
11520,56.2578,21430.3,1.87298
11600,56.6484,21561.6,1.88468
11680,57.0391,21694.2,1.89675
11760,57.4297,21832,1.9112
11840,57.8203,21999.5,1.92432
11920,58.2109,22125.3,1.93714
12000,58.6016,22251,1.95089
12080,58.9922,22407.5,1.96441
12160,59.3828,22553.9,1.97769
12240,59.7734,22715.1,1.99158
12320,60.1641,22817.6,2.00374
12400,60.5547,22970.6,2.01601
12480,60.9453,23117.5,2.029882
12560,61.3359,23248.9,2.04331
12640,61.7266,23348.6,2.05547
12720,62.1172,23509.4,2.06888
12800,62.5078,23670.1,2.08273
12880,62.8984,23802,2.09295
12960,63.2891,23928.1,2.106636
13040,63.6797,24073.5,2.12079
13120,64.0703,24217.1,2.13369
13200,64.4609,24339.1,2.14601
13280,64.8516,24479.5,2.15969
13360,65.2422,24584.7,2.17219
13440,65.6328,24739.8,2.1845
13520,66.0234,24883.2,2.19735
13600,66.4141,25020.9,2.21134
13680,66.8047,25166.4,2.2252
13760,67.1953,25291.6,2.23744
13840,67.5859,25428.4,2.25076
13920,67.9766,25562.9,2.26253
14000,68.3672,25687.1,2.27482
14080,68.7578,25826,2.28901
14160,69.1484,25970.3,2.30288
14240,69.5391,26095.9,2.31425
14320,69.9297,26203.4,2.32664
14400,70.3203,26358.3,2.340766
14480,70.7109,26507.3,2.35428
14560,71.1016,26639.5,2.36735
14640,71.4922,26763.4,2.38057
14720,71.8828,26909.3,2.39397
14800,72.2734,27054.4,2.40691
14880,72.6641,27191.4,2.41891
14960,73.0547,27301.2,2.43122
15040,73.4453,27431,2.44418
15120,73.8359,27586.3,2.45854
15200,74.2266,27713.1,2.47232
15280,74.6172,27834.7,2.4851
15360,75.0078,27986.4,2.49878
15440,75.3984,28114.7,2.511411
15520,75.7891,28244.7,2.52303
15600,76.1797,28371.8,2.53634
15680,76.5703,28505.6,2.55082
15760,76.9609,28638.2,2.56343
15840,77.3516,28772.7,2.57629
15920,77.7422,28890.4,2.58843
16000,78.1328,29020.4,2.60105
16080,78.5234,29179.8,2.61482
16160,78.9141,29303.9,2.62852
16240,79.3047,29434.8,2.64126
16320,79.6953,29566.7,2.65639
16400,80.0859,29705.5,2.66819
16480,80.4766,29835.8,2.68097
16560,80.8672,29951.2,2.69253
16640,81.2578,30068.6,2.70521
16720,81.6484,30215.3,2.71859
16800,82.0391,30330.2,2.73133
16880,82.4297,30455.9,2.744823
16960,82.8203,30596.5,2.75753
17040,83.2109,30735.3,2.77174
17120,83.6016,30872.1,2.78456
17200,83.9922,30980.4,2.7972
17280,84.3828,31103.8,2.81021
17360,84.7734,31251.1,2.82205
17440,85.1641,31380.3,2.8366
17520,85.5547,31484.7,2.847775
17600,85.9453,31604.9,2.86041
17680,86.3359,31744.4,2.87519
17760,86.7266,31882,2.8886
17840,87.1172,32008.7,2.90042
17920,87.5078,32130.3,2.91416
18000,87.8984,32247.8,2.92687
18080,88.2891,32394.8,2.94044
18160,88.6797,32518.2,2.95334
18240,89.0703,32638.2,2.96632
18320,89.4609,32772.7,2.97951
18400,89.8516,32896.6,2.99276
18480,90.2422,33021.7,3.005455
18560,90.6328,33139,3.01688
18640,91.0234,33262.4,3.03114
18720,91.4141,33402.9,3.04409
18800,91.8047,33526.3,3.05912
18880,92.1953,33650.2,3.0715
18960,92.5859,33784.8,3.08395
19040,92.9766,33912.6,3.09761
19120,93.3672,34039.6,3.11058
19200,93.7578,34152.9,3.12155
19280,94.1484,34239.3,3.1347
19360,94.5391,34395.7,3.14709
19440,94.9297,34518.5,3.16082
19520,95.3203,34639.3,3.17294
19600,95.7109,34752.2,3.18693
19680,96.1016,34889.4,3.20109
19760,96.4922,35016.7,3.21266
19840,96.8828,35143.9,3.22659
19920,97.2734,35251.2,3.23919
20000,97.6641,35377.6,3.25254
20080,98.0547,35499.9,3.26557
20160,98.4453,35619.2,3.27838
20240,98.8359,35737.6,3.28987
20320,99.2266,35860.8,3.30401
20400,99.6172,35980.7,3.3181
20480,100.008,36109.7,3.33057
20560,100.398,36214.1,3.342664
20640,100.789,36343.4,3.35605
20720,101.18,36473.6,3.36932
20800,101.57,36590.4,3.38158
20880,101.961,36697.5,3.39379
20960,102.352,36811.8,3.40795
21040,102.742,36936.7,3.42216
21120,103.133,37061.8,3.43448
21200,103.523,37162.8,3.44507
21280,103.914,37292.9,3.46072
21360,104.305,37427,3.47422
21440,104.695,37543.7,3.48693
21520,105.086,37660.5,3.50068
21600,105.477,37780.5,3.51309
21680,105.867,37905,3.52562
21760,106.258,38026.6,3.54003
21840,106.648,38127,3.55111
21920,107.039,38230.6,3.5641
22000,107.43,38350.9,3.57785
22080,107.82,38487.6,3.591042
22160,108.211,38610.2,3.60483
22240,108.602,38710.1,3.61627
22320,108.992,38830.8,3.63089
22400,109.383,38947.2,3.64387
22480,109.773,39054.8,3.656656
22560,110.164,39166.5,3.66951
22640,110.555,39282.1,3.68175
22720,110.945,39397.7,3.6967
22800,111.336,39506.2,3.70751
22880,111.727,39600.7,3.72003
22960,112.117,39729.1,3.73424
23040,112.508,39853.8,3.74835
23120,112.898,39964.6,3.76139
23200,113.289,40063.2,3.7733
23280,113.68,40177.2,3.78614
23360,114.07,40291.1,3.80031
23440,114.461,40398.5,3.81286
23520,114.852,40497.5,3.82476
23600,115.242,40608.6,3.83804
23680,115.633,40705.2,3.850924
23760,116.023,40813.3,3.86437
23772,116.082,-1459.99,4.08507