File: ASM109_2021_data/MTS/Quasi/MTS_quasi_1.csv
,Time [s],Load [N],Displacement [mm]
0,0.0078125,-338.461,0.000963014
83,0.413086,-149.829,0.012194
166,0.818359,53.7171,0.0251662
249,1.22363,252.104,0.0386148
332,1.62891,417.69,0.0535193
415,2.03418,585.276,0.0674165
498,2.43945,756.128,0.0801077
581,2.84473,927.786,0.0936848
664,3.25,1075.87,0.105566
747,3.65527,1242.69,0.118072
830,4.06055,1418.17,0.133288
913,4.46582,1614.64,0.147033
996,4.87109,1775.39,0.16106
1079,5.27637,1935.88,0.173362
1162,5.68164,2111.77,0.186821
1245,6.08691,2288.51,0.199441
1328,6.49219,2427.11,0.213691
1411,6.89746,2611.56,0.226685
1494,7.30273,2786.15,0.2418623
1577,7.70801,2973.9,0.253892
1660,8.11328,3134.29,0.268602
1743,8.51855,3286.55,0.282096
1826,8.92383,3471.75,0.296292
1909,9.3291,3633.94,0.307055
1992,9.734375,3801.87,0.321978
2075,10.1396,3950.56,0.336426
2158,10.5449,4129.39,0.349694
2241,10.9502,4302.61,0.363047
2324,11.3555,4458.36,0.376739
2407,11.7607,4622,0.390151
2490,12.166,4783.06,0.401571
2573,12.5713,4916.84,0.415996
2656,12.9766,5093.83,0.430883
2739,13.3818,5261.7,0.444595
2822,13.7871,5465.51,0.458016
2905,14.1924,5613.68,0.470633
2988,14.5977,5725.89,0.484401
3071,15.00293,5879.75,0.497963
3154,15.4082,6099.59,0.510187
3237,15.8135,6253.79,0.52382
3320,16.21875,6446.28,0.538606
3403,16.624,6599.53,0.553207
3486,17.0293,6761.88,0.567715
3569,17.43457,6923.02,0.579209
3652,17.8398,7065.43,0.591809
3735,18.2451,7217.44,0.606049
3818,18.6504,7400.11,0.620884
3901,19.0557,7571.31,0.632212
3984,19.4609,7721.07,0.647124
4067,19.8662,7882.5,0.66166
4150,20.2715,8031.51,0.674054
4233,20.6768,8163.35,0.686801
4316,21.082,8330.79,0.6992563
4399,21.4873,8491.89,0.713805
4482,21.8926,8654.05,0.727808
4565,22.2979,8836.8,0.740596
4648,22.7031,8995.18,0.755719
4731,23.1084,9159.06,0.769142
4814,23.5137,9285.55,0.78167
4897,23.9189,9466.95,0.794514
4980,24.3242,9623.12,0.808919
5063,24.7295,9792.44,0.822855
5146,25.1348,9955.76,0.837018
5229,25.54,10115.2,0.849303
5312,25.9453,10258.5,0.862903
5395,26.3506,10420.7,0.876931
5478,26.7559,10570.7,0.888412
5561,27.1611,10736.2,0.901758
5644,27.5664,10891.4,0.914683
5727,27.97168,11049.4,0.929758
5810,28.377,11216.2,0.942986
5893,28.7822,11363.7,0.956692
5976,29.1875,11511.7,0.970987
6059,29.5928,11658.5,0.984591
6142,29.998,11804.5,0.998105
6225,30.40332,11991.1,1.01103
6308,30.8086,12140.1,1.02456
6391,31.2139,12315.7,1.0387
6474,31.6191,12462.2,1.05259
6557,32.0244,12616.4,1.06442
6640,32.4297,12767.8,1.0797
6723,32.835,12922.7,1.09393
6806,33.2402,13072,1.10646
6889,33.6455,13238.6,1.11923
6972,34.0508,13393.8,1.13311
7055,34.4561,13538.7,1.14763
7138,34.8613,13688.8,1.159337
7221,35.2666,13830.2,1.17419
7304,35.6719,13955.4,1.18569
7387,36.0771,14128.3,1.19961
7470,36.4824,14305.7,1.21426
7553,36.8877,14446.2,1.22674
7636,37.293,14614.5,1.23961
7719,37.6982,14756.1,1.25424
7802,38.1035,14906.5,1.26631
7885,38.5088,15066.5,1.27978
7968,38.9141,15201.9,1.29363
8051,39.3193,15352.9,1.30872
8134,39.7246,15533.5,1.32246
8217,40.1299,15682.4,1.33621
8300,40.5352,15834.8,1.34902
8383,40.94043,15971.4,1.36238
8466,41.3457,16118.5,1.37443
8549,41.751,16261,1.39012
8632,42.15625,16435.9,1.40358
8715,42.5615,16581.3,1.41617
8798,42.9668,16715.2,1.42972
8881,43.37207,16879.9,1.44302
8964,43.7773,17022.3,1.45628
9047,44.1826,17161.6,1.469932
9130,44.5879,17299.2,1.48523
9213,44.9932,17474.7,1.497293
9296,45.3984,17630.7,1.51221
9379,45.8037,17793.5,1.52584
9462,46.209,17936.6,1.5383
9545,46.6143,18078.4,1.54991
9628,47.0195,18224.9,1.56487
9711,47.4248,18351.6,1.57827
9794,47.8301,18522.3,1.59282
9877,48.2354,18667.7,1.60562
9960,48.6406,18835.3,1.61999
10043,49.0459,18966.4,1.63143
10126,49.4512,19115.5,1.64507
10209,49.8564,19246.9,1.65738
10292,50.2617,19382.3,1.67245
10375,50.667,19547,1.68747
10458,51.0723,19697.4,1.70042
10541,51.4775,19852.6,1.7149
10624,51.8828,19987.8,1.72784
10707,52.2881,20135.1,1.73996
10790,52.6934,20246.3,1.75402
10873,53.0986,20386,1.767136
10956,53.5039,20577.8,1.78162
11039,53.9092,20731.9,1.79577
11122,54.3145,20891.7,1.80964
11205,54.7197,21035.9,1.8227
11288,55.125,21170.7,1.83631
11371,55.5303,21309.4,1.84874
11454,55.9355,21453.4,1.86339
11537,56.3408,21606.1,1.87544
11620,56.7461,21742.7,1.88892
11703,57.1514,21887.2,1.9039
11786,57.5566,22036.8,1.91703
11869,57.9619,22179.2,1.93069
11952,58.3672,22316.1,1.94204
12035,58.7725,22442,1.95533
12118,59.1777,22598.1,1.97009
12201,59.583,22747.5,1.98374
12284,59.9883,22891.1,1.99732
12367,60.3936,23038.1,2.01138
12450,60.7988,23180.1,2.02461
12533,61.2041,23335.1,2.03788
12616,61.6094,23458.2,2.05052
12699,62.0146,23616.5,2.06498
12782,62.4199,23740.8,2.078651
12865,62.8252,23902.7,2.09211
12948,63.2305,24042.4,2.10652
13031,63.6357,24175.2,2.11966
13114,64.041,24315.6,2.1328
13197,64.4463,24447.6,2.14662
13280,64.8516,24582.2,2.15954
13363,65.2568,24711.5,2.17281
13446,65.6621,24853.6,2.18778
13529,66.0674,25002.9,2.20004
13612,66.4727,25134.1,2.21396
13695,66.87793,25271.9,2.22774
13778,67.2832,25390.3,2.24007
13861,67.6885,25530,2.25397
13944,68.09375,25689.4,2.26774
14027,68.499,25801.5,2.28158
14110,68.9043,25972.9,2.29661
14193,69.30957,26115.2,2.3088
14276,69.7148,26248.8,2.3238
14359,70.1201,26378.1,2.33549
14442,70.5254,26490.1,2.34854
14525,70.9307,26623.1,2.3617
14608,71.3359,26785.2,2.3765
14691,71.7412,26919.8,2.39097
14774,72.1465,27055.6,2.40213
14857,72.5518,27187.9,2.41628
14940,72.957,27319.5,2.42872
15023,73.3623,27443.8,2.4418
15106,73.7676,27591.1,2.45528
15189,74.1729,27733.7,2.46997
15272,74.5781,27860.4,2.48278
15355,74.9834,28007.8,2.4973
15438,75.3887,28139.3,2.51004
15521,75.7939,28271.9,2.52346
15604,76.1992,28382.3,2.5352
15687,76.6045,28512.7,2.54984
15770,77.0098,28665.4,2.56356
15853,77.415,28806,2.57838
15936,77.8203,28925.5,2.59067
16019,78.2256,29069.5,2.60551
16102,78.6309,29213.6,2.61939
16185,79.0361,29329.3,2.63171
16268,79.4414,29462.5,2.64552
16351,79.84668,29595.8,2.65928
16434,80.252,29734.3,2.67253
16517,80.6572,29875.8,2.68591
16600,81.0625,29998.3,2.69914
16683,81.4678,30120.6,2.7141
16766,81.873,30244.6,2.72611
16849,82.27832,30375.7,2.73935
16932,82.6836,30514.2,2.75337
17015,83.0889,30650.8,2.76699
17098,83.4941,30791.9,2.78256
17181,83.8994,30931.9,2.79372
17264,84.3047,31053.1,2.80789
17347,84.71,31177,2.82103
17430,85.1152,31296.8,2.83261
17513,85.5205,31444.7,2.84614
17596,85.9258,31570.8,2.86237
17679,86.3311,31713.5,2.87617
17762,86.7363,31839.3,2.88906
17845,87.1416,31962.9,2.90343
17928,87.5469,32091.5,2.915
18011,87.9521,32214.4,2.9282
18094,88.3574,32331.7,2.943501
18177,88.7627,32478.7,2.95639
18260,89.168,32618.8,2.97062
18343,89.5732,32747.8,2.98431
18426,89.9785,32867.1,2.99591
18509,90.3838,32974.3,3.00907
18592,90.7891,33106.3,3.02345
18675,91.1943,33250.6,3.037919
18758,91.5996,33359.9,3.04985
18841,92.0049,33510.8,3.0633
18924,92.4102,33636.1,3.07739
19007,92.81543,33769.8,3.091193
19090,93.2207,33863.5,3.10369
19173,93.626,34003,3.11788
19256,94.03125,34126.6,3.132
19339,94.4365,34242.6,3.14592
19422,94.8418,34382.1,3.158601
19505,95.24707,34507.4,3.172899
19588,95.6523,34627,3.18622
19671,96.0576,34743.6,3.19885
19754,96.4629,34861.3,3.21273
19837,96.8682,34990.1,3.22633
19920,97.2734,35123.6,3.2401
20003,97.6787,35240.7,3.25245
20086,98.084,35373.9,3.26579
20169,98.4893,35500,3.280442
20252,98.8945,35626.3,3.29337
20335,99.2998,35712.3,3.30646
20418,99.7051,35846.5,3.31994
20501,100.11,35982.7,3.33505
20584,100.516,36103.3,3.34661
20667,100.9209,36228.1,3.36216
20750,101.326,36344.9,3.37444
20833,101.731,36455.5,3.38781
20916,102.137,36585.4,3.4019
20999,102.542,36688.9,3.41528
21082,102.947,36808.5,3.42949
21165,103.353,36935,3.44234
21248,103.758,37057,3.45573
21331,104.163,37175,3.46947
21414,104.568,37278.2,3.48331
21497,104.974,37414.3,3.49695
21580,105.379,37494.4,3.50942
21663,105.784,37618.5,3.5237
21746,106.189,37733.9,3.5378
21829,106.595,37862.3,3.5508
21912,107.0,37966.9,3.56505
21995,107.405,38060.8,3.57688
22078,107.811,38174.8,3.59093
22161,108.216,38273,3.60453
22244,108.621,38399,3.61866
22327,109.026,38492.2,3.63139
22410,109.432,38603.8,3.64446
22493,109.837,38712.5,3.65843
22576,110.242,38818.9,3.671674
22659,110.647,38928.2,3.68507
22742,111.053,39030.8,3.69972
22825,111.458,39132,3.71123
22908,111.863,39239,3.72781
22991,112.269,39349.4,3.73996
23074,112.674,39471.5,3.75205
23157,113.0791,39578.9,3.76501
23240,113.484,39689,3.77963
23323,113.89,39785.7,3.79385
23406,114.295,39874.8,3.80619
23489,114.7002,39995.8,3.82059
23572,115.105,40115.2,3.8351
23655,115.511,40222.4,3.84774
23738,115.916,40310.5,3.86071
23821,116.321,40415.7,3.87413
23904,116.727,40516.7,3.88825
23987,117.132,40621.7,3.9026
24070,117.537,40726.1,3.91429
24153,117.942,40819,3.92981
24236,118.348,40933.5,3.94175
24319,118.753,41029,3.9567
24402,119.1582,41135.4,3.97026
24485,119.563,41217.3,3.9831
24568,119.969,41314.8,3.99725
24651,120.374,41408.4,4.00977
24731,120.765,-9155.75,4.45724