File: ASM109_2021_data/MTS/Quasi/MTS_quasi_8.csv
,Time [s],Load [N],Displacement [mm]
0,0.00683594,-260.084,-0.00138491
84,0.416992,-66.4301,0.0129484
168,0.827148,105.885,0.0264779
252,1.2373,293.107,0.0399345
336,1.64746,468.613,0.0523755
420,2.05762,643.561,0.0667915
504,2.46777,808.863,0.081224
588,2.87793,978.125,0.0952703
672,3.28809,1133.27,0.109578
756,3.69824,1293.27,0.120033
840,4.1084,1454.46,0.1344
924,4.51855,1617.8,0.147646
1008,4.92871,1767.63,0.161708
1092,5.33887,1951.06,0.175942
1176,5.74902,2125.9,0.189758
1260,6.15918,2295.42,0.2033937
1344,6.56934,2450.88,0.217938
1428,6.97949,2631.98,0.231272
1512,7.38965,2783.75,0.244614
1596,7.7998,2940.85,0.258029
1680,8.20996,3090.33,0.270756
1764,8.62012,3236.31,0.285251
1848,9.03027,3409.62,0.299354
1932,9.44043,3597.42,0.312593
2016,9.85059,3770.77,0.326078
2100,10.2607,3924.18,0.340709
2184,10.6709,4082.61,0.353205
2268,11.0811,4245.87,0.367435
2352,11.4912,4409.86,0.379767
2436,11.9014,4536.45,0.394105
2520,12.3115,4681.62,0.407574
2604,12.7217,4871.13,0.42256
2688,13.1318,5042.79,0.434785
2772,13.542,5218.15,0.450415
2856,13.9521,5384.79,0.465311
2940,14.3623,5526.12,0.477785
3024,14.7725,5696.32,0.489838
3108,15.1826,5862.13,0.50473
3192,15.5928,5999.56,0.51604
3276,16.00293,6157.29,0.530335
3360,16.4131,6323.37,0.544715
3444,16.8232,6491.56,0.559892
3528,17.2334,6642.54,0.572202
3612,17.6436,6813.84,0.586633
3696,18.0537,6978,0.600493
3780,18.4639,7139.13,0.615174
3864,18.874,7285.14,0.626209
3948,19.28418,7446.78,0.640368
4032,19.6943,7606.31,0.655271
4116,20.1045,7745.55,0.667707
4200,20.5146,7895,0.682094
4284,20.9248,8065.94,0.695871
4368,21.335,8233.07,0.709861
4452,21.7451,8389.26,0.724025
4536,22.1553,8544.27,0.737356
4620,22.56543,8700.49,0.751059
4704,22.9756,8866.79,0.764491
4788,23.3857,9009.74,0.777748
4872,23.7959,9146.81,0.7913996
4956,24.2061,9291.15,0.804762
5040,24.6162,9463.81,0.817572
5124,25.0264,9606.62,0.832546
5208,25.4365,9779.88,0.846885
5292,25.84668,9943.79,0.861128
5376,26.2568,10088.5,0.873054
5460,26.667,10235.7,0.886755
5544,27.0771,10392.8,0.900363
5628,27.4873,10539.4,0.912727
5712,27.8975,10692.8,0.926464
5796,28.3076,10835.6,0.94274
5880,28.7178,10998.1,0.955253
5964,29.12793,11154.3,0.968975
6048,29.5381,11329.8,0.982829
6132,29.9482,11480.7,0.996581
6216,30.3584,11642.9,1.01068
6300,30.7686,11778.3,1.023113
6384,31.1787,11934.7,1.03721
6468,31.5889,12076.7,1.04984
6552,31.999,12218.8,1.06625
6636,32.40918,12368.7,1.07792
6720,32.8193,12526.8,1.09236
6804,33.2295,12687,1.1056
6888,33.6396,12841.7,1.11954
6972,34.0498,12996.3,1.13405
7056,34.46,13144,1.14732
7140,34.8701,13290.7,1.159556
7224,35.2803,13446.2,1.17552
7308,35.69043,13583.9,1.18745
7392,36.1006,13744,1.20234
7476,36.5107,13885.6,1.21494
7560,36.9209,14038.1,1.22829
7644,37.3311,14197.5,1.24236
7728,37.7412,14344.2,1.25589
7812,38.1514,14494.3,1.27017
7896,38.5615,14637.8,1.28357
7980,38.97168,14789.6,1.29572
8064,39.3818,14923.2,1.30988
8148,39.792,15087.8,1.32507
8232,40.2021,15232.2,1.33594
8316,40.6123,15371.7,1.35204
8400,41.0225,15532.7,1.36538
8484,41.4326,15686.6,1.37826
8568,41.8428,15841.5,1.39227
8652,42.25293,15993.1,1.40581
8736,42.6631,16135.4,1.41991
8820,43.0732,16289.4,1.433068
8904,43.4834,16417.9,1.447
8988,43.8936,16581,1.46078
9072,44.3037,16728.3,1.47531
9156,44.7139,16882.5,1.48817
9240,45.124,17029.2,1.50272
9324,45.53418,17182.5,1.51553
9408,45.9443,17320.9,1.52993
9492,46.3545,17477.1,1.54462
9576,46.7646,17602,1.5555
9660,47.1748,17747.1,1.56848
9744,47.585,17908.7,1.58436
9828,47.9951,18054.4,1.5985
9912,48.4053,18203.2,1.61274
9996,48.81543,18339.1,1.62537
10080,49.2256,18503.8,1.63864
10164,49.6357,18649.9,1.65283
10248,50.0459,18791.6,1.66487
10332,50.4561,18911.7,1.67755
10416,50.8662,19071.7,1.69321
10500,51.2764,19221.4,1.70592
10584,51.6865,19375.2,1.72092
10668,52.09668,19499.7,1.73536
10752,52.5068,19651.2,1.74939
10836,52.917,19796.9,1.76152
10920,53.3271,19950.5,1.77714
11004,53.7373,20097.8,1.78911
11088,54.1475,20230.5,1.80106
11172,54.5576,20356.6,1.81594
11256,54.9678,20528.6,1.82853
11340,55.3779,20657.3,1.84466
11424,55.7881,20814,1.85729
11508,56.1982,20948.2,1.87183
11592,56.6084,21107.8,1.88537
11676,57.0186,21232.1,1.89723
11760,57.4287,21387.1,1.91084
11844,57.8389,21531.9,1.92486
11928,58.249,21673.9,1.94012
12012,58.6592,21819,1.95227
12096,59.0693,21957.7,1.96498
12180,59.4795,22117.4,1.98073
12264,59.8896,22235.5,1.994
12348,60.2998,22391.8,2.00857
12432,60.71,22543,2.02246
12516,61.1201,22676.1,2.03473
12600,61.5303,22812.8,2.04965
12684,61.9404,22961.5,2.06236
12768,62.3506,23101.5,2.07632
12852,62.7607,23253.7,2.09166
12936,63.1709,23415.8,2.10598
13020,63.5811,23543.9,2.11807
13104,63.9912,23695,2.13168
13188,64.4014,23831.5,2.14575
13272,64.8115,23963.7,2.16042
13356,65.22168,24098.8,2.17305
13440,65.6318,24229.1,2.18672
13524,66.042,24373.6,2.1999
13608,66.4521,24498.7,2.21109
13692,66.8623,24654.6,2.2262
13776,67.2725,24803.2,2.24038
13860,67.6826,24940,2.25417
13944,68.0928,25076.5,2.26936
14028,68.50293,25216.9,2.28181
14112,68.9131,25348,2.29423
14196,69.3232,25500.2,2.30864
14280,69.7334,25627.2,2.32136
14364,70.1436,25731.6,2.33449
14448,70.5537,25892.6,2.348978
14532,70.9639,26037,2.36277
14616,71.374,26161.8,2.37788
14700,71.78418,26304.1,2.389812
14784,72.1943,26455.1,2.4049
14868,72.6045,26585.8,2.41979
14952,73.0146,26725.1,2.43033
15036,73.4248,26861.9,2.44618
15120,73.835,27002.1,2.45944
15204,74.2451,27129.5,2.471436
15288,74.6553,27270.2,2.48529
15372,75.06543,27410,2.50042
15456,75.4756,27552.2,2.51511
15540,75.8857,27689.7,2.52778
15624,76.2959,27832.8,2.54223
15708,76.7061,27959.8,2.55392
15792,77.1162,28077.4,2.56883
15876,77.5264,28221.2,2.58191
15960,77.9365,28338.7,2.59425
16044,78.34668,28470,2.60785
16128,78.7568,28631.2,2.62432
16212,79.167,28766.6,2.637826
16296,79.5771,28899.6,2.65104
16380,79.9873,29035.7,2.66387
16464,80.3975,29180.1,2.67813
16548,80.8076,29304.8,2.69127
16632,81.2178,29442.7,2.70573
16716,81.62793,29564.4,2.71739
16800,82.0381,29692.5,2.73061
16884,82.4482,29813.3,2.74558
16968,82.8584,29970.2,2.75867
17052,83.2686,30095.4,2.77229
17136,83.6787,30248.8,2.78635
17220,84.0889,30376,2.80151
17304,84.499,30510.7,2.81456
17388,84.90918,30629.9,2.82794
17472,85.3193,30768.8,2.84081
17556,85.7295,30887.3,2.85494
17640,86.1396,31005,2.86846
17724,86.5498,31134.8,2.88191
17808,86.96,31295.9,2.89602
17892,87.3701,31423.6,2.91061
17976,87.7803,31563.7,2.92446
18060,88.19043,31696.2,2.93812
18144,88.6006,31822.6,2.95111
18228,89.0107,31948.8,2.96348
18312,89.4209,32078.7,2.97967
18396,89.8311,32202.3,2.992255
18480,90.2412,32333.3,3.0058
18564,90.6514,32469.5,3.01995
18648,91.0615,32599,3.034245
18732,91.47168,32731.4,3.04717
18816,91.8818,32866.4,3.06166
18900,92.292,32988.8,3.07552
18984,92.7021,33113.2,3.08785
19068,93.1123,33240.3,3.10073
19152,93.5225,33375.3,3.115581
19236,93.9326,33486.6,3.12753
19320,94.3428,33630.9,3.14264
19404,94.75293,33738.1,3.1554
19488,95.1631,33900.8,3.1701
19572,95.5732,34025.7,3.18348
19656,95.9834,34154.6,3.19818
19740,96.3936,34280,3.21179
19824,96.8037,34399.8,3.22462
19908,97.2139,34533.8,3.23903
19992,97.624,34638.5,3.25133
20076,98.03418,34753,3.26353
20160,98.4443,34886,3.27734
20244,98.8545,35035.4,3.2933
20328,99.2646,35169.9,3.30564
20412,99.6748,35294.1,3.31985
20496,100.085,35416.5,3.33477
20580,100.495,35536.3,3.34715
20664,100.905,35656.5,3.36137
20748,101.315,35793.1,3.375108
20832,101.726,35895.6,3.38838
20916,102.136,36018.5,3.4014
21000,102.5459,36158.1,3.41582
21084,102.956,36290.6,3.42994
21168,103.366,36410.3,3.44257
21252,103.776,36529.8,3.45793
21336,104.187,36665.2,3.47131
21420,104.597,36785.9,3.48453
21504,105.007,36913.2,3.49783
21588,105.417,37031.5,3.51209
21672,105.827,37142.1,3.52447
21756,106.2373,37282.2,3.53904
21840,106.647,37412.8,3.55242
21924,107.058,37533.7,3.56682
22008,107.468,37666.6,3.58102
22092,107.878,37783.9,3.594502
22176,108.288,37901.4,3.60805
22260,108.698,38015.7,3.62227
22344,109.1084,38132.8,3.63353
22428,109.519,38243.5,3.64711
22512,109.929,38346.6,3.66221
22596,110.339,38487.2,3.6757
22680,110.749,38611.6,3.68942
22764,111.159,38736.1,3.7036
22848,111.569,38857.7,3.71614
22932,111.979,38973.3,3.73123
23016,112.39,39078,3.743547
23100,112.7998,39203.3,3.75776
23184,113.21,39320,3.77113
23268,113.62,39419.7,3.78362
23352,114.03,39527.5,3.79872
23436,114.44,39664.2,3.81201
23520,114.851,39795.1,3.82542
23604,115.261,39899.4,3.83969
23688,115.6709,40030.7,3.85516
23772,116.081,40126.6,3.86711
23856,116.491,40245.5,3.88163
23940,116.901,40361.6,3.89452
24024,117.312,40462.4,3.90768
24108,117.722,40577.1,3.92106
24192,118.132,40694.5,3.93542
24276,118.542,40806.2,3.948812
24360,118.952,40922,3.96145
24444,119.3623,41030.4,3.97788
24528,119.772,41132.3,3.98896
24612,120.183,41244,4.00391
24696,120.593,41353.1,4.01684
24780,121.003,41446.5,4.02991
24864,121.413,41551.5,4.04458
24948,121.823,41649.7,4.05637
25032,122.2334,41760.4,4.07204
25116,122.644,41875.6,4.08512
25149,122.805,-5765.76,4.664547