File: ASM109_2021_data/MTS/Quasi/MTS_quasi_7.csv
,Time [s],Load [N],Displacement [mm]
0,0.0078125,-526.676,0.002142638
81,0.40332,-335.725,0.0110659
162,0.798828,-199.58,0.0232713
243,1.19434,-21.6953,0.038259
324,1.58984,156.381,0.0531404
405,1.98535,312.566,0.0643873
486,2.38086,430.142,0.0775655
567,2.77637,601.206,0.0899559
648,3.171875,812.307,0.104052
729,3.56738,977.59,0.116213
810,3.96289,1142.3,0.130835
891,4.3584,1269.92,0.140211
972,4.75391,1427.58,0.155281
1053,5.14941,1619.81,0.169459
1134,5.54492,1786.31,0.183107
1215,5.94043,1953.23,0.195601
1296,6.33594,2072.24,0.208255
1377,6.73145,2252.3,0.222856
1458,7.12695,2424,0.237103
1539,7.52246,2602.14,0.24878
1620,7.91797,2764.79,0.261936
1701,8.31348,2904.77,0.272328
1782,8.70898,3074.97,0.288357
1863,9.10449,3267.8,0.303755
1944,9.5,3423.74,0.314834
2025,9.89551,3549.44,0.324275
2106,10.291,3695.07,0.338436
2187,10.6865,3885.32,0.35367
2268,11.082,4060.52,0.36656
2349,11.4775,4224.05,0.381461
2430,11.873,4347.92,0.39256
2511,12.2686,4477.32,0.406824
2592,12.6641,4683.87,0.418998
2673,13.0596,4843.38,0.433246
2754,13.4551,5002.21,0.446653
2835,13.8506,5126.65,0.459392
2916,14.2461,5277.76,0.471146
2997,14.6416,5457.17,0.485163
3078,15.0371,5640.69,0.498581
3159,15.4326,5791.79,0.5120042
3240,15.8281,5934.72,0.524047
3321,16.2236,6087.09,0.536965
3402,16.6191,6260.71,0.552478
3483,17.0146,6423.67,0.565197
3564,17.4102,6583.79,0.578136
3645,17.8057,6741.39,0.589225
3726,18.2012,6892.17,0.605286
3807,18.59668,7066.81,0.61769
3888,18.9922,7215.57,0.63049
3969,19.3877,7358.18,0.643355
4050,19.7832,7464.77,0.6555109
4131,20.1787,7654.87,0.669514
4212,20.5742,7848.18,0.68459
4293,20.9697,7995.93,0.696398
4374,21.3652,8130.77,0.707816
4455,21.7607,8254.45,0.7227
4536,22.15625,8418.69,0.735293
4617,22.5518,8602.67,0.749001
4698,22.9473,8748.91,0.762681
4779,23.3428,8896.99,0.775819
4860,23.7383,9047.27,0.789594
4941,24.1338,9195.87,0.802225
5022,24.5293,9380.79,0.815003
5103,24.9248,9527.08,0.828394
5184,25.3203,9665.68,0.842154
5265,25.71582,9833.49,0.853786
5346,26.1113,10000.6,0.86928
5427,26.5068,10152.7,0.883885
5508,26.9023,10319.1,0.895385
5589,27.2979,10452,0.906638
5670,27.6934,10604.2,0.921877
5751,28.0889,10749.4,0.935652
5832,28.4844,10914.7,0.947193
5913,28.8799,11057.9,0.960537
5994,29.2754,11167,0.973461
6075,29.6709,11341.8,0.986833
6156,30.0664,11513.7,1.00081
6237,30.4619,11660.7,1.01279
6318,30.8574,11802.7,1.0249
6399,31.25293,11914.8,1.03997
6480,31.6484,12094.6,1.0528
6561,32.0439,12270.7,1.06423
6642,32.4395,12412.7,1.0796
6723,32.835,12563.1,1.091976
6804,33.2305,12704.1,1.10505
6885,33.626,12862.2,1.11905
6966,34.0215,13023.1,1.132176
7047,34.417,13169.3,1.14519
7128,34.8125,13290.6,1.15717
7209,35.208,13445.9,1.17057
7290,35.6035,13609.6,1.185117
7371,35.999,13757.7,1.198132
7452,36.3945,13895.5,1.21067
7533,36.79,14041.9,1.22285
7614,37.1855,14197.8,1.23632
7695,37.5811,14352.3,1.25084
7776,37.9766,14495.8,1.26276
7857,38.37207,14631.9,1.27501
7938,38.7676,14738.7,1.288817
8019,39.1631,14910.3,1.30213
8100,39.5586,15075.8,1.31614
8181,39.9541,15236.8,1.32922
8262,40.3496,15370.6,1.34048
8343,40.7451,15489,1.35549
8424,41.1406,15667.1,1.36759
8505,41.5361,15817.4,1.38093
8586,41.9316,15967.1,1.39553
8667,42.3271,16099.3,1.40738
8748,42.7227,16232.9,1.42063
8829,43.1182,16422.4,1.43414
8910,43.5137,16570.8,1.45047
8991,43.90918,16714.9,1.46101
9072,44.3047,16861,1.476
9153,44.7002,17003.7,1.48807
9234,45.0957,17148.4,1.50079
9315,45.4912,17292.4,1.5141
9396,45.8867,17454.4,1.52818
9477,46.2822,17553.2,1.53885
9558,46.6777,17738.3,1.55528
9639,47.0732,17881.9,1.5676
9720,47.46875,18025.5,1.58068
9801,47.8643,18171.3,1.59205
9882,48.2598,18278.2,1.60436
9963,48.6553,18445,1.61907
10044,49.0508,18595.5,1.63365
10125,49.4463,18744.5,1.644516
10206,49.8418,18894.9,1.6586
10287,50.2373,19022.6,1.67268
10368,50.6328,19173.7,1.68525
10449,51.02832,19341.1,1.69884
10530,51.4238,19472.9,1.71061
10611,51.8193,19621.1,1.72585
10692,52.2148,19755,1.73803
10773,52.6104,19912.3,1.7511
10854,53.0059,20059.2,1.76459
10935,53.4014,20196.6,1.77827
11016,53.7969,20304.4,1.78863
11097,54.1924,20473.1,1.80343
11178,54.5879,20625.3,1.81717
11259,54.9834,20790.5,1.83125
11340,55.3789,20885.4,1.84212
11421,55.7744,21024.2,1.85566
11502,56.1699,21190,1.868856
11583,56.5654,21333.3,1.882622
11664,56.9609,21477.7,1.89566
11745,57.3564,21616.8,1.90887
11826,57.752,21746.1,1.92031
11907,58.1475,21869.5,1.93592
11988,58.543,22058.4,1.94988
12069,58.9385,22210.5,1.96168
12150,59.334,22343,1.97466
12231,59.7295,22459.2,1.98735
12312,60.125,22635.3,2.00238
12393,60.5205,22790.8,2.01603
12474,60.916,22917.8,2.02941
12555,61.3115,23054.6,2.04193
12636,61.707,23197.1,2.05404
12717,62.1025,23333.8,2.067199
12798,62.498,23488.5,2.08127
12879,62.8936,23630.6,2.09525
12960,63.2891,23756.4,2.10569
13041,63.6846,23874.7,2.11936
13122,64.0801,24045.2,2.133523
13203,64.4756,24185.2,2.14708
13284,64.8711,24314.6,2.15957
13365,65.2666,24406.4,2.17056
13446,65.6621,24567.5,2.18656
13527,66.0576,24732.8,2.19876
13608,66.4531,24880.6,2.21241
13689,66.8486,25021.9,2.22498
13770,67.2441,25122.5,2.2404
13851,67.6396,25276.7,2.25125
13932,68.0352,25443.3,2.26484
14013,68.4307,25598.7,2.27812
14094,68.8262,25717.5,2.29167
14175,69.22168,25854.2,2.30483
14256,69.6172,25998.2,2.31738
14337,70.0127,26155.8,2.33102
14418,70.4082,26294.2,2.34506
14499,70.8037,26431.9,2.35844
14580,71.1992,26558.5,2.37004
14661,71.5947,26704.2,2.38466
14742,71.9902,26853.3,2.39754
14823,72.3857,26971,2.41066
14904,72.78125,27109.4,2.42071
14985,73.1768,27249,2.43435
15066,73.5723,27397,2.44903
15147,73.9678,27545.6,2.46212
15228,74.3633,27676.4,2.47505
15309,74.7588,27776.3,2.48724
15390,75.1543,27941.6,2.50123
15471,75.5498,28084.1,2.51611
15552,75.9453,28215.3,2.52827
15633,76.34082,28365.8,2.54228
15714,76.7363,28499.6,2.55582
15795,77.1318,28622.8,2.56761
15876,77.5273,28785.5,2.58211
15957,77.9229,28931.2,2.59541
16038,78.3184,29052,2.60925
16119,78.7139,29169.9,2.61998
16200,79.1094,29334,2.63438
16281,79.5049,29474.6,2.64892
16362,79.9004,29598.2,2.66099
16443,80.2959,29740.4,2.67317
16524,80.6914,29855.1,2.68545
16605,81.0869,30009.9,2.69997
16686,81.4824,30156.4,2.713902
16767,81.87793,30296.1,2.72689
16848,82.2734,30397.3,2.73868
16929,82.6689,30547.5,2.75335
17010,83.0645,30707.6,2.765521
17091,83.46,30840.5,2.77828
17172,83.8555,30980.9,2.79209
17253,84.251,31074.1,2.80551
17334,84.6465,31226.7,2.81814
17415,85.042,31380.3,2.83255
17496,85.4375,31527.9,2.84678
17577,85.833,31661.5,2.85998
17658,86.2285,31783.3,2.87228
17739,86.624,31920.4,2.88367
17820,87.0195,32065.9,2.89751
17901,87.415,32202.1,2.91157
17982,87.8105,32325.7,2.92553
18063,88.2061,32463.4,2.93842
18144,88.6016,32595.7,2.95077
18225,88.99707,32743.3,2.96282
18306,89.3926,32873.5,2.97735
18387,89.7881,33000.3,2.98953
18468,90.1836,33127.2,3.00288
18549,90.5791,33277.8,3.01653
18630,90.9746,33403.3,3.0298
18711,91.3701,33533.9,3.04287
18792,91.7656,33651.4,3.05638
18873,92.1611,33764.3,3.06674
18954,92.5566,33923.7,3.08353
19035,92.9521,34063,3.09428
19116,93.3477,34200.5,3.10982
19197,93.7432,34306.3,3.12098
19278,94.1387,34434.7,3.13468
19359,94.53418,34592.5,3.14826
19440,94.9297,34730.4,3.16048
19521,95.3252,34859.3,3.17422
19602,95.7207,34969.2,3.18687
19683,96.1162,35113.9,3.20026
19764,96.5117,35259.1,3.21333
19845,96.9072,35389.5,3.22685
19926,97.3027,35520,3.24143
20007,97.6982,35637.6,3.25213
20088,98.09375,35770.4,3.26655
20169,98.4893,35917.1,3.27925
20250,98.8848,36040.8,3.2946
20331,99.2803,36169.5,3.3062
20412,99.6758,36296.2,3.31858
20493,100.071,36429.3,3.33215
20574,100.4668,36566.2,3.34644
20655,100.8623,36678.1,3.35726
20736,101.258,36803.5,3.37069
20817,101.653,36942.8,3.38462
20898,102.049,37065.2,3.39896
20979,102.444,37204.9,3.41234
21060,102.84,37346.1,3.42448
21141,103.235,37472.1,3.43656
21222,103.631,37608.4,3.45108
21303,104.026,37730.2,3.46533
21384,104.422,37871.3,3.47759
21465,104.817,37997.7,3.4901
21546,105.213,38117,3.5036
21627,105.6084,38238.6,3.516
21708,106.004,38381.4,3.53223
21789,106.399,38513.5,3.54302
21870,106.795,38632.9,3.55676
21951,107.19,38759.4,3.56937
22032,107.586,38888.1,3.5836
22113,107.981,39025.9,3.59703
22194,108.377,39145.1,3.60886
22275,108.772,39247.5,3.62087
22356,109.168,39374.1,3.63452
22437,109.563,39499.9,3.64726
22518,109.959,39623,3.66222
22599,110.354,39753.4,3.67396
22680,110.75,39876.7,3.68777
22761,111.146,39986.8,3.70016
22842,111.541,40126.1,3.71415
22923,111.937,40244.1,3.7269
23004,112.332,40371.5,3.74148
23085,112.728,40485.5,3.75338
23166,113.123,40610.7,3.7692
23247,113.519,40724.5,3.78137
23328,113.914,40852.4,3.7947
23409,114.31,40973.6,3.80656
23490,114.705,41091.9,3.82032
23571,115.101,41201.5,3.83424
23652,115.496,41329.2,3.84704
23733,115.8916,41445.7,3.85965
23814,116.287,41569,3.87291
23895,116.683,41683.7,3.88649
23976,117.078,41809,3.89908
24005,117.22,7115.35,4.0356