File: ASM109_2021_data/MTS/UD/MTS_UD_8.csv
,Time [s],Load [N],Displacement [mm]
0,0.00683594,-144.563,0.00176524
60,0.299805,-27.1629,0.00888014
120,0.592773,52.8736,0.0184524
180,0.885742,158.096,0.0276623
240,1.17871,282.207,0.0365732
300,1.47168,393.698,0.0488832
360,1.76465,495.886,0.0585329
420,2.05762,605.621,0.06683521
480,2.35059,717.1,0.076591
540,2.64355,825.994,0.0879785
600,2.93652,920.711,0.09691713
660,3.22949,1034.44,0.109262
720,3.52246,1123.47,0.115916
780,3.81543,1232.7,0.125992
840,4.1084,1339.24,0.136187
900,4.40137,1439.94,0.145833
960,4.69434,1522.23,0.154855
1020,4.9873,1639.43,0.164593
1080,5.28027,1724.02,0.173123
1140,5.57324,1844.73,0.183098
1200,5.86621,1969.71,0.1939106
1260,6.15918,2057.82,0.204084
1320,6.45215,2178.1,0.212296
1380,6.74512,2287.64,0.224747
1440,7.03809,2381.94,0.233078
1500,7.33105,2498.78,0.243627
1560,7.62402,2601.67,0.252983
1620,7.91699,2694.84,0.261681
1680,8.20996,2794.55,0.27192
1740,8.50293,2895.78,0.281815
1800,8.7959,2990.8,0.290396
1860,9.08887,3093.82,0.299338
1920,9.38184,3195.91,0.30902
1980,9.6748,3295.56,0.32079
2040,9.96777,3412.04,0.329859
2100,10.2607,3517.45,0.340886
2160,10.5537,3621.49,0.349735
2220,10.8467,3730.58,0.360875
2280,11.1396,3843.97,0.372025
2340,11.4326,3945.42,0.381709
2400,11.7256,4031.05,0.388583
2460,12.0186,4125.94,0.39913
2520,12.3115,4235.18,0.408866
2580,12.6045,4337.57,0.417645
2640,12.8975,4420.47,0.427591
2700,13.19043,4520.3,0.436618
2760,13.4834,4633.4,0.448384
2820,13.7764,4729.04,0.457678
2880,14.0693,4845.01,0.467169
2940,14.3623,4943.3,0.4779503
3000,14.6553,5051.09,0.486875
3060,14.9482,5162.1,0.4968825
3120,15.2412,5252.32,0.506315
3180,15.53418,5354.32,0.516525
3240,15.8271,5458.77,0.527639
3300,16.1201,5556.32,0.536983
3360,16.4131,5647.76,0.546282
3420,16.7061,5758.32,0.555636
3480,16.999,5833.98,0.564404
3540,17.292,5938.66,0.575631
3600,17.585,6043.36,0.583675
3660,17.87793,6136.73,0.594054
3720,18.1709,6260.82,0.604602
3780,18.4639,6363.86,0.613391
3840,18.7568,6461.64,0.623289
3900,19.0498,6566.66,0.634265
3960,19.3428,6662.02,0.643834
4020,19.6357,6779.09,0.65406
4080,19.9287,6863.58,0.6636948
4140,20.22168,6966.25,0.672434
4200,20.5146,7062.51,0.68377
4260,20.8076,7157.77,0.691941
4320,21.1006,7250.76,0.701438
4380,21.3936,7351.43,0.711859
4440,21.6865,7454.02,0.72108
4500,21.9795,7535.99,0.729205
4560,22.2725,7644.84,0.740994
4620,22.56543,7750.19,0.751189
4680,22.8584,7854.52,0.760579
4740,23.1514,7956.38,0.769181
4800,23.4443,8067.08,0.781102
4860,23.7373,8160.94,0.7909
4920,24.0303,8264.79,0.801147
4980,24.3232,8372.71,0.810122
5040,24.6162,8461.71,0.821294
5100,24.90918,8562.42,0.829712
5160,25.2021,8653.37,0.840109
5220,25.4951,8744.35,0.847381
5280,25.7881,8839.75,0.858399
5340,26.0811,8944.65,0.867556
5400,26.374,9044.69,0.877874
5460,26.667,9135.03,0.887381
5520,26.96,9249.46,0.897154
5580,27.25293,9347.77,0.9080686
5640,27.5459,9454.97,0.915625
5700,27.8389,9549.72,0.924991
5760,28.1318,9650.16,0.93684
5820,28.4248,9741.99,0.946928
5880,28.7178,9840.84,0.955225
5940,29.0107,9944.96,0.965828
6000,29.3037,10034,0.976709
6060,29.59668,10131,0.983992
6120,29.8896,10226.1,0.994419
6180,30.1826,10328.7,1.00371
6240,30.4756,10403.6,1.01361
6300,30.7686,10532.6,1.02275
6360,31.0615,10603.4,1.03292
6420,31.3545,10723.1,1.04366
6480,31.6475,10832.8,1.0542
6540,31.94043,10932.9,1.06389
6600,32.2334,11020,1.07387
6660,32.5264,11121.7,1.08361
6720,32.8193,11235.1,1.092402
6780,33.1123,11327.7,1.10366
6840,33.4053,11430.2,1.11322
6900,33.6982,11510.3,1.12264
6960,33.9912,11603.8,1.13107
7020,34.28418,11716.4,1.142
7080,34.5771,11811.9,1.1527
7140,34.8701,11896,1.160501
7200,35.1631,11998.7,1.17095
7260,35.4561,12110.6,1.18022
7320,35.749,12218.4,1.19054
7380,36.042,12307.9,1.19965
7440,36.335,12394.9,1.20997
7500,36.62793,12498.8,1.21931
7560,36.9209,12600.7,1.22921
7620,37.2139,12705.9,1.23873
7680,37.5068,12797.9,1.24876
7740,37.7998,12899,1.26111
7800,38.0928,12997.2,1.26994
7860,38.3857,13094.4,1.27889
7920,38.6787,13195.1,1.29031
7980,38.97168,13289.7,1.29837
8040,39.2646,13399.6,1.30772
8100,39.5576,13479.7,1.31706
8160,39.8506,13582.5,1.32855
8220,40.1436,13671.3,1.33782
8280,40.4365,13781.1,1.346222
8340,40.7295,13865.5,1.35723
8400,41.0225,13973.7,1.36571
8460,41.31543,14067,1.37572
8520,41.6084,14166.1,1.38555
8580,41.9014,14267.9,1.39598
8640,42.1943,14348.2,1.40515
8700,42.4873,14454.9,1.41613
8760,42.7803,14550.1,1.42487
8820,43.0732,14638.3,1.43285
8880,43.3662,14745.4,1.44324
8940,43.65918,14841.4,1.45369
9000,43.9521,14933.7,1.46261
9060,44.2451,15009.6,1.47266
9120,44.5381,15123.7,1.48181
9180,44.8311,15233.3,1.49375
9240,45.124,15327.4,1.50242
9300,45.417,15424.9,1.51318
9360,45.71,15528.5,1.52204
9420,46.00293,15624.1,1.53237
9480,46.2959,15719.6,1.54152
9540,46.5889,15828.9,1.55132
9600,46.8818,15907.8,1.561635
9660,47.1748,16014.1,1.57207
9720,47.4678,16106.4,1.5807
9780,47.7607,16202.5,1.58997
9840,48.0537,16270.9,1.60015
9900,48.34668,16370.1,1.609316
9960,48.6396,16484.5,1.62009
10020,48.9326,16593.4,1.63041
10080,49.2256,16691.3,1.63816
10140,49.5186,16778,1.64944
10200,49.8115,16882.9,1.66096
10260,50.1045,16987,1.66968
10320,50.3975,17072.2,1.67968
10380,50.69043,17171.1,1.68817
10440,50.9834,17267.5,1.69873
10500,51.2764,17355.7,1.706565
10560,51.5693,17452.2,1.71776
10620,51.8623,17551.2,1.72748
10680,52.1553,17606.3,1.73731
10740,52.4482,17712.6,1.74559
10800,52.7412,17814.6,1.75578
10860,53.0342,17926.7,1.76511
10920,53.3271,18033.5,1.77687
10980,53.6201,18134.7,1.78585
11040,53.9131,18238.2,1.79566
11100,54.2061,18315.5,1.80622
11160,54.499,18426.9,1.81591
11220,54.792,18521.5,1.82639
11280,55.085,18619,1.83744
11340,55.3779,18705.6,1.8453
11400,55.6709,18796.7,1.85419
11460,55.9639,18888,1.8639
11520,56.2568,18956.3,1.87272
11580,56.5498,19063.7,1.88331
11640,56.8428,19136.7,1.89316
11700,57.1357,19274.8,1.902059
11760,57.4287,19376.1,1.91248
11820,57.7217,19468.2,1.92252
11880,58.0146,19576,1.93276
11940,58.3076,19675.8,1.94387
12000,58.6006,19769.5,1.95143
12060,58.8936,19865.2,1.96178
12120,59.1865,19968.7,1.97155
12180,59.4795,20059.8,1.98125
12240,59.7725,20145.6,1.99057
12300,60.0654,20222,2.00106
12360,60.3584,20314.1,2.00925
12420,60.6514,20418.8,2.01928
12480,60.9443,20512.4,2.0292
12540,61.2373,20613.9,2.03805
12600,61.5303,20721.3,2.05023
12660,61.8232,20823,2.06024
12720,62.1162,20905.7,2.06869
12780,62.4092,21013.3,2.08
12840,62.7021,21104.2,2.08931
12900,62.9951,21217.1,2.09951
12960,63.2881,21294.4,2.10833
13020,63.5811,21379.6,2.11948
13080,63.874,21477.5,2.12865
13140,64.167,21563.1,2.13666
13200,64.46,21627.2,2.14805
13260,64.75293,21731.3,2.15686
13320,65.0459,21838.4,2.16592
13380,65.3389,21933.5,2.17626
13440,65.6318,22039.6,2.1848
13500,65.9248,22132.1,2.19474
13560,66.2178,22225.2,2.20737
13620,66.5107,22310.8,2.216078
13680,66.8037,22418.1,2.22665
13740,67.09668,22501.2,2.23636
13800,67.3896,22607.8,2.2451
13860,67.6826,22703,2.25422
13920,67.9756,22796,2.26525
13980,68.2686,22884.8,2.27422
14040,68.5615,22951.5,2.28534
14100,68.8545,23053.9,2.29215
14160,69.1475,23139.4,2.30258
14220,69.44043,23239.5,2.31371
14280,69.7334,23327.3,2.32164
14340,70.0264,23413.1,2.33125
14400,70.3193,23505.8,2.34284
14460,70.6123,23618.5,2.35212
14520,70.9053,23711.4,2.36396
14580,71.1982,23792.2,2.37209
14640,71.4912,23905.2,2.38336
14700,71.78418,24000.1,2.39122
14760,72.0771,24085.4,2.4002
14820,72.3701,24177.8,2.41196
14880,72.6631,24241.4,2.420706
14940,72.9561,24344.3,2.43059
15000,73.249,24430,2.43897
15060,73.542,24522,2.44911
15120,73.835,24612.1,2.45871
15180,74.12793,24717.1,2.4688
15240,74.4209,24818.5,2.47915
15300,74.7139,24914.2,2.48841
15360,75.0068,24995.3,2.49936
15420,75.2998,25094.5,2.50754
15480,75.5928,25200.1,2.51815
15540,75.8857,25281.7,2.52742
15600,76.1787,25381.6,2.53711
15660,76.47168,25472.4,2.54862
15720,76.7646,25548.4,2.55663
15780,77.0576,25658.4,2.568567
15840,77.3506,25747.6,2.57689
15900,77.6436,25826.4,2.58603
15960,77.9365,25911.6,2.59485
16020,78.2295,26002.6,2.60384
16080,78.5225,26100.3,2.61502
16140,78.81543,26207.6,2.62695
16200,79.1084,26277.8,2.63492
16260,79.4014,26374.9,2.64431
16320,79.6943,26483.4,2.65575
16380,79.9873,26566.3,2.66478
16440,80.2803,26666.7,2.67354
16500,80.5732,26741.7,2.68357
16560,80.8662,26841.4,2.69463
16620,81.15918,26918.7,2.70372
16680,81.4521,27021.9,2.71318
16740,81.7451,27102.1,2.72233
16800,82.0381,27198.4,2.73233
16860,82.3311,27291.1,2.74346
16920,82.624,27382.9,2.75191
16980,82.917,27466,2.761013
17040,83.21,27548.3,2.77068
17100,83.50293,27650.9,2.77995
17160,83.7959,27751.6,2.79023
17220,84.0889,27835.5,2.79983
17280,84.3818,27929.3,2.80992
17340,84.6748,28027.4,2.81977
17400,84.9678,28108,2.83005
17460,85.2607,28198.1,2.841291
17520,85.5537,28283.2,2.85013
17580,85.84668,28357.6,2.85966
17640,86.1396,28454.2,2.86889
17700,86.4326,28557.6,2.87917
17760,86.7256,28633.9,2.88898
17766,86.7549,7062.82,3.024085