File: ASM109_2021_data/MTS/UD/MTS_UD_6.csv
,Time [s],Load [N],Displacement [mm]
0,0.0078125,-241.438,0.000224411
63,0.31543,-222.243,0.007866919
126,0.623047,-133.952,0.0187893
189,0.930664,-21.7126,0.0282338
252,1.23828,108.409,0.0421259
315,1.5459,211.541,0.0513884
378,1.85352,306.397,0.0599112
441,2.16113,401.197,0.070176
504,2.46875,495.635,0.0800335
567,2.77637,606.103,0.0917293
630,3.08398,711.096,0.101485
693,3.3916,820.304,0.112469
756,3.69922,914.098,0.121532
819,4.00684,996.05,0.130924
882,4.31445,1099.82,0.140073
945,4.62207,1209.53,0.14999
1008,4.92969,1324.35,0.162035
1071,5.2373,1427.18,0.174083
1134,5.54492,1529.2,0.183426
1197,5.85254,1623.6,0.192139
1260,6.16016,1726.68,0.203823
1323,6.46777,1832.38,0.214012
1386,6.77539,1938.69,0.224654
1449,7.08301,2030.09,0.235827
1512,7.390625,2127.11,0.243759
1575,7.69824,2194.83,0.254797
1638,8.00586,2309.96,0.2651538
1701,8.31348,2444.42,0.274494
1764,8.62109,2547.62,0.286565
1827,8.92871,2647.06,0.296648
1890,9.23633,2745.62,0.307169
1953,9.54395,2842.8,0.315632
2016,9.85156,2934.09,0.32621
2079,10.1592,3052.11,0.337066
2142,10.4668,3150.09,0.347433
2205,10.7744,3244.23,0.357895
2268,11.082,3328.17,0.3669937
2331,11.3896,3424.21,0.377578
2394,11.6973,3526.86,0.386309
2457,12.0049,3642.09,0.396236
2520,12.3125,3763.6,0.410258
2583,12.6201,3848.46,0.419351
2646,12.9277,3942.12,0.428737
2709,13.2354,4055.87,0.438809
2772,13.543,4155.9,0.44857
2835,13.8506,4260.19,0.460013
2898,14.1582,4358.52,0.4701148
2961,14.46582,4460.04,0.480196
3024,14.7734,4564.07,0.491291
3087,15.0811,4650.32,0.501003
3150,15.3887,4758.17,0.511111
3213,15.6963,4851.36,0.521019
3276,16.0039,4965.69,0.53151
3339,16.3115,5013.42,0.541709
3402,16.6191,5127.45,0.55283
3465,16.9268,5236.44,0.561549
3528,17.2344,5373.84,0.572828
3591,17.542,5468.91,0.582458
3654,17.8496,5573.27,0.594551
3717,18.1572,5667.65,0.603512
3780,18.4648,5765.77,0.6129
3843,18.7725,5870.07,0.625817
3906,19.0801,5964.73,0.634629
3969,19.3877,6074.7,0.643107
4032,19.6953,6176.03,0.655514
4095,20.00293,6259.29,0.665266
4158,20.3105,6321.42,0.675341
4221,20.6182,6437.13,0.684826
4284,20.9258,6566.56,0.695452
4347,21.2334,6677.89,0.707864
4410,21.541,6770.2,0.71701
4473,21.8486,6871.7,0.727076
4536,22.15625,6952.15,0.736118
4599,22.4639,7067.03,0.747686
4662,22.7715,7174.15,0.759336
4725,23.0791,7279.43,0.76879
4788,23.3867,7357.65,0.77861
4851,23.6943,7453.85,0.786972
4914,24.002,7552.88,0.798221
4977,24.30957,7662.96,0.807169
5040,24.6172,7768.32,0.819826
5103,24.9248,7872.99,0.831679
5166,25.2324,7969.33,0.841005
5229,25.54,8070.46,0.85031
5292,25.8477,8165.27,0.859203
5355,26.1553,8272.56,0.871715
5418,26.4629,8369.36,0.882467
5481,26.7705,8476.46,0.891992
5544,27.0781,8561.68,0.900262
5607,27.3857,8635.64,0.910572
5670,27.6934,8737.04,0.920748
5733,28.001,8865.25,0.930539
5796,28.3086,8969.67,0.942868
5859,28.6162,9064.83,0.951934
5922,28.9238,9158.32,0.962947
5985,29.2314,9257,0.972391
6048,29.5391,9352.96,0.980909
6111,29.84668,9475.79,0.993351
6174,30.1543,9574.2,1.00399
6237,30.4619,9668.37,1.013652
6300,30.7695,9759.72,1.02253
6363,31.0771,9842.96,1.03427
6426,31.3848,9958.52,1.04238
6489,31.6924,10047.1,1.05328
6552,32.0,10149.9,1.06426
6615,32.3076,10246.8,1.0747
6678,32.6152,10334.8,1.08522
6741,32.9229,10438.1,1.09427
6804,33.2305,10529.6,1.10395
6867,33.5381,10658.4,1.11597
6930,33.8457,10757.1,1.12744
6993,34.15332,10844.6,1.13569
7056,34.4609,10945.7,1.14595
7119,34.7686,11034.1,1.15649
7182,35.0762,11146.6,1.16696
7245,35.3838,11233.7,1.1767
7308,35.6914,11338.9,1.18714
7371,35.999,11416.7,1.19827
7434,36.3066,11505.9,1.20795
7497,36.6143,11621.5,1.21737
7560,36.9219,11737.9,1.22801
7623,37.2295,11840.5,1.23927
7686,37.5371,11943.8,1.25084
7749,37.8447,12038.8,1.25983
7812,38.1523,12148.2,1.27039
7875,38.46,12220.7,1.27981
7938,38.7676,12334.6,1.29053
8001,39.0752,12441.8,1.30066
8064,39.3828,12536.9,1.31192
8127,39.69043,12609.6,1.32229
8190,39.998,12714.9,1.33036
8253,40.3057,12820.1,1.33888
8316,40.6133,12922.5,1.35106
8379,40.9209,13008,1.36188
8442,41.2285,13130.3,1.37405
8505,41.5361,13219.7,1.3823
8568,41.84375,13326.6,1.39173
8631,42.1514,13425,1.40277
8694,42.459,13529,1.41402
8757,42.7666,13634.9,1.42499
8820,43.0742,13722.7,1.43475
8883,43.3818,13820.7,1.44316
8946,43.6895,13900.4,1.45449
9009,43.99707,14010.7,1.46309
9072,44.3047,14118.4,1.4747
9135,44.6123,14211.7,1.48495
9198,44.9199,14298.4,1.49413
9261,45.2275,14383.4,1.50403
9324,45.5352,14491.8,1.51297
9387,45.8428,14606.5,1.52656
9450,46.1504,14700.6,1.537
9513,46.458,14818.1,1.54697
9576,46.7656,14902,1.55885
9639,47.0732,15009,1.56774
9702,47.3809,15102,1.576957
9765,47.6885,15198.8,1.58752
9828,47.9961,15299.1,1.59837
9891,48.3037,15394.7,1.60791
9954,48.6113,15499.4,1.61938
10017,48.9189,15581.7,1.62889
10080,49.2266,15690.4,1.63927
10143,49.53418,15793.3,1.64997
10206,49.8418,15900.1,1.65987
10269,50.1494,16003.6,1.67183
10332,50.457,16096.3,1.67975
10395,50.7646,16169.4,1.69058
10458,51.0723,16280,1.700318
10521,51.3799,16374.8,1.7122
10584,51.6875,16466.8,1.72111
10647,51.9951,16576.9,1.73056
10710,52.3027,16652,1.74162
10773,52.6104,16748.3,1.75179
10836,52.918,16870,1.7617
10899,53.2256,16975.3,1.7746
10962,53.5332,17082.3,1.78428
11025,53.8408,17171.9,1.79542
11088,54.1484,17261.9,1.80383
11151,54.4561,17358.3,1.81445
11214,54.7637,17464.7,1.82328
11277,55.0713,17561.1,1.8349
11340,55.3789,17666.1,1.84657
11403,55.6865,17751.6,1.85638
11466,55.9941,17806.5,1.863619
11529,56.3018,17914.8,1.87375
11592,56.6094,18026.2,1.88399
11655,56.917,18140.5,1.89691
11718,57.2246,18244.9,1.90646
11781,57.5322,18340,1.91507
11844,57.8398,18435.4,1.928
11907,58.1475,18522.8,1.93717
11970,58.4551,18637,1.94757
12033,58.7627,18737.1,1.9565
12096,59.0703,18830.8,1.96807
12159,59.3779,18918.6,1.97862
12222,59.6855,18992.8,1.98798
12285,59.9932,19088.6,1.99709
12348,60.3008,19208.7,2.00843
12411,60.6084,19304.1,2.01912
12474,60.916,19408.7,2.03058
12537,61.2236,19499.1,2.03816
12600,61.53125,19594,2.0491
12663,61.8389,19682.7,2.0576
12726,62.1465,19793.9,2.06947
12789,62.4541,19888.1,2.08081
12852,62.7617,20000.2,2.0902
12915,63.0693,20082.4,2.10169
12978,63.377,20175,2.11055
13041,63.6846,20274.5,2.11993
13104,63.9922,20362.9,2.13107
13167,64.2998,20438.8,2.14153
13230,64.6074,20559.1,2.15145
13293,64.915,20646,2.16166
13356,65.2227,20720.3,2.17193
13419,65.5303,20847.8,2.18135
13482,65.8379,20955.9,2.19313
13545,66.1455,21052.1,2.20358
13608,66.4531,21150.1,2.2147
13671,66.7607,21239.3,2.22445
13734,67.0684,21330.1,2.232935
13797,67.376,21432.9,2.24346
13860,67.6836,21527.3,2.25551
13923,67.9912,21624.2,2.26421
13986,68.2988,21712,2.27372
14049,68.6064,21783.1,2.28536
14112,68.9141,21906.5,2.29519
14175,69.22168,22012.1,2.30704
14238,69.5293,22105.2,2.31657
14301,69.8369,22212.3,2.32737
14364,70.1445,22302.6,2.338074
14427,70.4521,22389.3,2.34525
14490,70.7598,22489.9,2.3563
14553,71.0674,22589.6,2.36789
14616,71.375,22684.9,2.37767
14679,71.6826,22779.8,2.38894
14742,71.9902,22869.9,2.39762
14805,72.2979,22940.8,2.40642
14868,72.6055,23063.7,2.417598
14931,72.9131,23151.4,2.42959
14994,73.2207,23278.6,2.4423
15057,73.52832,23364.5,2.45044
15120,73.8359,23458.1,2.46093
15183,74.1436,23541,2.46944
15246,74.4512,23649.6,2.48116
15309,74.7588,23742.1,2.49023
15372,75.0664,23832.3,2.50301
15435,75.374,23935.2,2.5123
15498,75.6816,24015.2,2.52154
15561,75.9893,24108.9,2.53111
15624,76.2969,24194.8,2.54036
15687,76.6045,24292.4,2.55145
15750,76.9121,24399.2,2.561722
15813,77.2197,24490.5,2.57168
15876,77.5273,24591.5,2.58338
15939,77.835,24675,2.59269
16002,78.1426,24782.3,2.604404
16065,78.4502,24873,2.61215
16128,78.7578,24974.5,2.62505
16191,79.06543,25063.4,2.63575
16254,79.373,25158.8,2.64478
16317,79.6807,25243.5,2.65371
16380,79.9883,25359,2.66476
16443,80.2959,25451.7,2.673367
16506,80.6035,25537.7,2.68538
16569,80.9111,25636.4,2.69599
16632,81.21875,25732.4,2.7052
16695,81.5264,25816.9,2.71563
16758,81.834,25916.9,2.72705
16821,82.1416,26016.4,2.736939
16884,82.4492,26118.8,2.74639
16947,82.7568,26190.7,2.75791
17010,83.0645,26296.1,2.76727
17073,83.37207,26382.7,2.77602
17136,83.6797,26471,2.78752
17199,83.9873,26565.2,2.797497
17262,84.2949,26657.7,2.80891
17325,84.6025,26743.7,2.81704
17388,84.9102,26820.2,2.82779
17451,85.2178,26934.9,2.83851
17514,85.5254,27035.3,2.8488
17577,85.833,27140,2.85987
17640,86.1406,27222.9,2.87017
17703,86.4482,27309.8,2.88114
17766,86.7559,27402.8,2.88883
17829,87.0635,27498.3,2.900569
17892,87.3711,27595.8,2.90969
17955,87.6787,27688.5,2.92058
18018,87.9863,27766.4,2.9306
18081,88.2939,27853.1,2.940887
18144,88.6016,27944.4,2.95188
18207,88.90918,28049.2,2.96144
18270,89.2168,28151.2,2.97285
18333,89.5244,28243.2,2.98293
18396,89.832,28330,2.9937
18459,90.1396,28413.9,3.00322
18522,90.4473,28509.3,3.01108
18585,90.7549,28611.1,3.02329
18648,91.0625,28695.8,3.03541
18692,91.2773,-4242.12,3.41853