File: ASM109_2021_data/MTS/UD/MTS_UD_5.csv
,Time [s],Load [N],Displacement [mm]
0,0.0078125,-257.582,0.00189453
66,0.330078,-238.408,0.0105125
132,0.652344,-103.765,0.0221197
198,0.974609,8.63952,0.0315294
264,1.296875,91.7264,0.042939
330,1.61914,217.666,0.053595
396,1.94141,325.859,0.0644879
462,2.26367,409.729,0.0755779
528,2.58594,482.432,0.0843117
594,2.9082,640.952,0.0948697
660,3.23047,748.407,0.106093
726,3.55273,847.804,0.118349
792,3.875,931.354,0.126924
858,4.19727,1043.64,0.139725
924,4.51953,1152.92,0.150119
990,4.8418,1258.42,0.161013
1056,5.16406,1358.73,0.170445
1122,5.48633,1467.03,0.181509
1188,5.80859,1564.36,0.192672
1254,6.13086,1650.8,0.201979
1320,6.453125,1778.74,0.213623
1386,6.77539,1886.48,0.224626
1452,7.09766,1963.76,0.235154
1518,7.41992,2091.72,0.247615
1584,7.74219,2202.68,0.255637
1650,8.06445,2309.64,0.268405
1716,8.38672,2384.53,0.27845
1782,8.70898,2499.07,0.287147
1848,9.03125,2621.92,0.300656
1914,9.35352,2717.27,0.310446
1980,9.67578,2815.77,0.319725
2046,9.99805,2918.47,0.331049
2112,10.3203,3034,0.3421019
2178,10.6426,3128.48,0.352514
2244,10.9648,3234.65,0.364974
2310,11.2871,3339.63,0.373836
2376,11.6094,3441.75,0.3854
2442,11.9316,3550.75,0.396259
2508,12.2539,3654.26,0.407312
2574,12.5762,3761.73,0.418591
2640,12.8984,3820.45,0.428286
2706,13.2207,3957.34,0.43681
2772,13.543,4079.57,0.450785
2838,13.8652,4171.16,0.460921
2904,14.1875,4243.59,0.470075
2970,14.5098,4375.87,0.481365
3036,14.832,4497.31,0.495171
3102,15.1543,4598.45,0.503684
3168,15.4766,4675.17,0.513669
3234,15.7988,4800.9,0.523661
3300,16.1211,4908.31,0.536229
3366,16.4434,4998.85,0.547021
3432,16.7656,5088.63,0.556805
3498,17.0879,5197.25,0.567624
3564,17.4102,5322.18,0.579514
3630,17.7324,5411.42,0.589467
3696,18.0547,5523.47,0.599725
3762,18.377,5632.26,0.611557
3828,18.6992,5723.21,0.621948
3894,19.0215,5828.3,0.630521
3960,19.34375,5937.28,0.643729
4026,19.666,6043.99,0.654638
4092,19.9883,6109.22,0.663633
4158,20.3105,6214.5,0.674704
4224,20.6328,6348.72,0.686769
4290,20.9551,6461.34,0.698935
4356,21.2773,6534.57,0.706662
4422,21.5996,6664.46,0.718387
4488,21.9219,6765.65,0.728357
4554,22.2441,6877.03,0.739789
4620,22.5664,6965.47,0.751884
4686,22.8887,7067.76,0.761241
4752,23.2109,7184.02,0.774387
4818,23.5332,7278.39,0.782055
4884,23.8555,7387.33,0.7946
4950,24.1777,7491.01,0.804801
5016,24.5,7591.57,0.815013
5082,24.8223,7670.3,0.823761
5148,25.1445,7796.4,0.836928
5214,25.4668,7899.61,0.8469348
5280,25.7891,7988.13,0.858309
5346,26.1113,8069.89,0.867904
5412,26.4336,8207.77,0.880885
5478,26.7559,8311.99,0.890076
5544,27.0781,8378.97,0.902694
5610,27.4004,8498.35,0.912352
5676,27.7227,8621.03,0.922676
5742,28.0449,8722.45,0.934605
5808,28.3672,8813.78,0.944134
5874,28.6895,8920.53,0.955005
5940,29.0117,9028.36,0.966077
6006,29.334,9140.39,0.977231
6072,29.65625,9229.05,0.986681
6138,29.9785,9329.57,0.99716
6204,30.3008,9424.45,1.00832
6270,30.623,9549.06,1.01952
6336,30.9453,9650.55,1.0302
6402,31.2676,9746.53,1.04034
6468,31.5898,9842.08,1.0515
6534,31.9121,9948.81,1.06204
6600,32.2344,10058.2,1.07323
6666,32.5566,10172,1.08564
6732,32.8789,10250.6,1.09347
6798,33.2012,10327.2,1.10359
6864,33.5234,10474.3,1.1178
6930,33.8457,10568.4,1.12677
6996,34.168,10658.3,1.13758
7062,34.4902,10764.6,1.14716
7128,34.8125,10873,1.15863
7194,35.1348,10979.2,1.16976
7260,35.457,11058.7,1.17976
7326,35.7793,11168.8,1.19002
7392,36.1016,11284.9,1.20252
7458,36.4238,11380.7,1.21245
7524,36.7461,11482.9,1.22287
7590,37.0684,11586.4,1.23582
7656,37.3906,11684.9,1.2444
7722,37.7129,11760.6,1.25422
7788,38.0352,11893.6,1.26657
7854,38.3574,12004.7,1.27761
7920,38.6797,12071.3,1.28869
7986,39.002,12162.7,1.29927
8052,39.3242,12305.2,1.30922
8118,39.6465,12405.6,1.32047
8184,39.96875,12472.5,1.33105
8250,40.291,12598.2,1.34049
8316,40.6133,12718.1,1.354
8382,40.9355,12819.5,1.36286
8448,41.2578,12904.5,1.37262
8514,41.5801,12999.4,1.38416
8580,41.9023,13118.2,1.39521
8646,42.2246,13207.4,1.40641
8712,42.5469,13324.3,1.41606
8778,42.8691,13425.7,1.4276
8844,43.1914,13518.4,1.43792
8910,43.5137,13622.8,1.44932
8976,43.8359,13724.7,1.46108
9042,44.1582,13836.1,1.4709
9108,44.4805,13918.4,1.48126
9174,44.8027,14007,1.49088
9240,45.125,14135.1,1.50277
9306,45.4473,14235.3,1.51493
9372,45.7695,14320.2,1.52341
9438,46.0918,14415.1,1.5337
9504,46.4141,14541.8,1.54462
9570,46.7363,14636.3,1.557
9636,47.0586,14720.9,1.56733
9702,47.3809,14831,1.57712
9768,47.7031,14938.1,1.58906
9834,48.0254,15046.4,1.6009
9900,48.3477,15140.4,1.60957
9966,48.6699,15245,1.61975
10032,48.9922,15339.1,1.63001
10098,49.3145,15439.3,1.64002
10164,49.6367,15546.3,1.65214
10230,49.959,15660.7,1.66478
10296,50.28125,15730.3,1.6739
10362,50.6035,15824.2,1.6827
10428,50.9258,15966.3,1.69767
10494,51.248,16055.4,1.70875
10560,51.5703,16140.3,1.71748
10626,51.8926,16213.3,1.72733
10692,52.2148,16355.9,1.73909
10758,52.5371,16453.6,1.75053
10824,52.8594,16547.8,1.76047
10890,53.1816,16653.2,1.77095
10956,53.5039,16756,1.78186
11022,53.8262,16861.4,1.79371
11088,54.1484,16955.7,1.802
11154,54.4707,17065.5,1.81449
11220,54.793,17153.9,1.82567
11286,55.1152,17246.2,1.83415
11352,55.4375,17355.2,1.84617
11418,55.7598,17462.7,1.85741
11484,56.082,17554.5,1.86851
11550,56.4043,17654.3,1.87906
11616,56.7266,17756.8,1.88875
11682,57.0488,17862.3,1.90024
11748,57.3711,17953.8,1.9105
11814,57.6934,18019.8,1.9212
11880,58.0156,18165.5,1.93117
11946,58.3379,18270.9,1.94393
12012,58.6602,18355,1.95327
12078,58.9824,18443.6,1.96288
12144,59.3047,18557.4,1.97572
12210,59.627,18682.8,1.98776
12276,59.9492,18759,1.99599
12342,60.2715,18849.1,2.00736
12408,60.59375,18963.8,2.01696
12474,60.916,19066.8,2.0295
12540,61.2383,19167.7,2.04027
12606,61.5605,19263.4,2.051285
12672,61.8828,19360.4,2.06162
12738,62.2051,19445.9,2.07147
12804,62.5273,19559.7,2.0828
12870,62.8496,19665.9,2.09345
12936,63.1719,19753.1,2.10455
13002,63.4941,19841.9,2.11347
13068,63.8164,19960.3,2.12578
13134,64.1387,20061.3,2.13593
13200,64.4609,20153,2.14708
13266,64.7832,20224.7,2.15623
13332,65.1055,20361.5,2.1694
13398,65.4277,20470,2.18018
13464,65.75,20548.3,2.19126
13530,66.0723,20651,2.19933
13596,66.3945,20738.9,2.20999
13662,66.7168,20855.5,2.2224
13728,67.0391,20948.1,2.2327
13794,67.3613,21043.6,2.24256
13860,67.6836,21150.1,2.25586
13926,68.0059,21245.1,2.26459
13992,68.3281,21335,2.27509
14058,68.6504,21455.5,2.28722
14124,68.9727,21548,2.29783
14190,69.2949,21627.7,2.30736
14256,69.6172,21749.5,2.31816
14322,69.9395,21854.4,2.33024
14388,70.2617,21935.8,2.34041
14454,70.584,21996.3,2.34984
14520,70.90625,22133.5,2.3623
14586,71.2285,22238.9,2.37258
14652,71.5508,22329.9,2.3844
14718,71.873,22419.9,2.39258
14784,72.1953,22520.3,2.40543
14850,72.5176,22631.6,2.41509
14916,72.8398,22721.2,2.42548
14982,73.1621,22830.6,2.43727
15048,73.4844,22924.6,2.4477
15114,73.8066,23017.3,2.457839
15180,74.1289,23118,2.46794
15246,74.4512,23228.5,2.48059
15312,74.7734,23323.4,2.49058
15378,75.0957,23408.5,2.50019
15444,75.418,23500.1,2.51137
15510,75.7402,23608.4,2.52313
15576,76.0625,23695.9,2.53542
15642,76.3848,23773.5,2.54301
15708,76.707,23905.2,2.55435
15774,77.0293,24012.9,2.56635
15840,77.3516,24097.4,2.57655
15906,77.6738,24195.9,2.58755
15972,77.9961,24297.6,2.59857
16038,78.3184,24400.3,2.60939
16104,78.6406,24495.8,2.61989
16170,78.9629,24590,2.63007
16236,79.2852,24688.3,2.64077
16302,79.6074,24789.1,2.65309
16368,79.9297,24884.3,2.6629
16434,80.252,24999,2.67386
16500,80.5742,25070.1,2.68471
16566,80.8965,25168.7,2.69508
16632,81.21875,25267.1,2.70477
16698,81.541,25371.5,2.71625
16764,81.8633,25468,2.72783
16830,82.1855,25531,2.7381
16896,82.5078,25641.5,2.74768
16962,82.8301,25761.2,2.75954
17028,83.1523,25838.7,2.77055
17094,83.4746,25936.4,2.78132
17160,83.7969,26031.4,2.79116
17226,84.1191,26145.4,2.80334
17292,84.4414,26227.6,2.81394
17358,84.7637,26303,2.82383
17424,85.0859,25565.1,2.83513
17490,85.4082,25676.8,2.84771
17556,85.7305,25761,2.85692
17622,86.0527,25885.1,2.86793
17688,86.375,25968.6,2.87791
17754,86.6973,26060.7,2.88927
17820,87.0195,26159.4,2.89804
17886,87.3418,26260.3,2.91068
17952,87.6641,26358.2,2.92077
18018,87.9863,26437.3,2.93198
18084,88.3086,26514.4,2.94098
18150,88.6309,26652.4,2.95324
18216,88.9531,26743.9,2.96442
18282,89.2754,26820.2,2.97396
18348,89.5977,26916.6,2.985131
18414,89.9199,27032.7,2.99798
18480,90.2422,27110.4,3.00744
18546,90.5645,27203.2,3.01715
18612,90.8867,27301.4,3.02777
18678,91.209,27397.4,3.03949
18744,91.53125,27488.6,3.04894
18810,91.8535,27576.7,3.06058
18876,92.1758,27667.9,3.0705
18942,92.498,27769.3,3.082927
19008,92.8203,27857.7,3.09206
19074,93.1426,27963.4,3.10273
19140,93.4648,28059,3.11539
19206,93.7871,28143.4,3.12389
19272,94.1094,28224,3.13343
19338,94.4316,28198.8,3.14735
19404,94.7539,28291.6,3.15833
19470,95.0762,28368.5,3.16762
19536,95.3984,28471.1,3.17839
19602,95.7207,28575.6,3.19008
19668,96.043,28662.4,3.19996
19734,96.3652,28712,3.21047
19756,96.4727,168.945,3.29274