File: ASM109_2021_data/MTS/UD/MTS_UD_12.csv
,Time [s],Load [N],Displacement [mm]
0,0.0078125,-242.486,-0.000259854
66,0.330078,-190.136,0.0105759
132,0.652344,-84.0585,0.0218863
198,0.974609,10.0437,0.0327114
264,1.296875,129.233,0.0415664
330,1.61914,250.677,0.0550134
396,1.94141,367.939,0.0638697
462,2.26367,475.049,0.0729939
528,2.58594,581.52,0.083752
594,2.9082,704.026,0.0953441
660,3.23047,817.649,0.1072721
726,3.55273,930.905,0.117742
792,3.875,1037.5,0.127614
858,4.19727,1149.45,0.137547
924,4.51953,1269.62,0.149375
990,4.8418,1391.66,0.159777
1056,5.16406,1486.63,0.170365
1122,5.48633,1595.11,0.181611
1188,5.80859,1716.69,0.190941
1254,6.13086,1841.23,0.202408
1320,6.453125,1949.44,0.212814
1386,6.77539,2050.7,0.223487
1452,7.09766,2184.3,0.233693
1518,7.41992,2292.51,0.244701
1584,7.74219,2406.55,0.255656
1650,8.06445,2515.92,0.26653
1716,8.38672,2631.24,0.27565
1782,8.70898,2764.48,0.2895295
1848,9.03125,2860.05,0.299922
1914,9.35352,2981.68,0.311243
1980,9.67578,3077.61,0.319452
2046,9.99805,3203.87,0.331585
2112,10.3203,3305.47,0.342522
2178,10.6426,3428.37,0.352781
2244,10.9648,3527.58,0.363361
2310,11.2871,3655.68,0.375449
2376,11.6094,3768.15,0.384249
2442,11.9316,3881.47,0.396659
2508,12.2539,3973.96,0.407084
2574,12.5762,4095.46,0.418392
2640,12.8984,4198.79,0.428421
2706,13.2207,4321.99,0.439148
2772,13.543,4414.02,0.448395
2838,13.8652,4539.7,0.460703
2904,14.1875,4645.89,0.470027
2970,14.5098,4765.42,0.48176
3036,14.832,4870.96,0.493511
3102,15.1543,4989.14,0.503369
3168,15.4766,5091.44,0.513091
3234,15.7988,5217.49,0.524902
3300,16.1211,5318.6,0.535461
3366,16.4434,5444,0.545798
3432,16.7656,5537.17,0.556121
3498,17.0879,5655.73,0.5672726
3564,17.4102,5770.73,0.579549
3630,17.7324,5886.79,0.590123
3696,18.0547,6000.53,0.602161
3762,18.377,6108.27,0.61108
3828,18.6992,6212.95,0.620637
3894,19.0215,6328.89,0.631101
3960,19.34375,6440.57,0.643899
4026,19.666,6549.57,0.654194
4092,19.9883,6656.89,0.665126
4158,20.3105,6765.38,0.675634
4224,20.6328,6859.53,0.684877
4290,20.9551,6989.48,0.696138
4356,21.2773,7059.1,0.70684
4422,21.5996,7195.45,0.719026
4488,21.9219,7301.54,0.729408
4554,22.2441,7415.05,0.739016
4620,22.5664,7524.51,0.750604
4686,22.8887,7630.9,0.760333
4752,23.2109,7740.04,0.771447
4818,23.5332,7867.34,0.782795
4884,23.8555,7966.29,0.792302
4950,24.1777,8073.33,0.803428
5016,24.5,8188.18,0.814987
5082,24.8223,8298.3,0.825503
5148,25.1445,8402.89,0.8369742
5214,25.4668,8520.25,0.848364
5280,25.7891,8613.94,0.857623
5346,26.1113,8739.65,0.868738
5412,26.4336,8849.63,0.879602
5478,26.7559,8951.74,0.890675
5544,27.0781,9049.1,0.90077
5610,27.4004,9176.5,0.91148
5676,27.7227,9274.72,0.922194
5742,28.0449,9394.88,0.933036
5808,28.3672,9463.64,0.943238
5874,28.6895,9601.23,0.95246
5940,29.0117,9712.06,0.965146
6006,29.334,9825.76,0.976885
6072,29.65625,9918.78,0.986008
6138,29.9785,10037.7,0.998496
6204,30.3008,10145.4,1.00921
6270,30.623,10269.9,1.01901
6336,30.9453,10366.3,1.02995
6402,31.2676,10469.7,1.03918
6468,31.5898,10558.2,1.04918
6534,31.9121,10694.8,1.06199
6600,32.2344,10804.9,1.07317
6666,32.5566,10901.8,1.08253
6732,32.8789,11016.6,1.09279
6798,33.2012,11129.1,1.10309
6864,33.5234,11235.6,1.116053
6930,33.8457,11348.4,1.12591
6996,34.168,11447.4,1.13739
7062,34.4902,11563.6,1.14626
7128,34.8125,11671.4,1.15812
7194,35.1348,11781.3,1.16807
7260,35.457,11884.3,1.18014
7326,35.7793,11995.7,1.19007
7392,36.1016,12104.3,1.20066
7458,36.4238,12209.1,1.211826
7524,36.7461,12308.6,1.22242
7590,37.0684,12423.9,1.23382
7656,37.3906,12536.4,1.24339
7722,37.7129,12648.1,1.25564
7788,38.0352,12737,1.26485
7854,38.3574,12855.1,1.27629
7920,38.6797,12948,1.28775
7986,39.002,13064.7,1.29736
8052,39.3242,13165,1.3087
8118,39.6465,13274.8,1.31949
8184,39.96875,13369.1,1.32978
8250,40.291,13506.9,1.34102
8316,40.6133,13601.3,1.35054
8382,40.9355,13721.1,1.36274
8448,41.2578,13822.3,1.37245
8514,41.5801,13926,1.38291
8580,41.9023,14031.6,1.39506
8646,42.2246,14147.3,1.4037
8712,42.5469,14252.4,1.41761
8778,42.8691,14359.2,1.42738
8844,43.1914,14465.9,1.43677
8910,43.5137,14575.2,1.44976
8976,43.8359,14692.7,1.45892
9042,44.1582,14778.4,1.47173
9108,44.4805,14886.8,1.48157
9174,44.8027,15009.4,1.49047
9240,45.125,15112.9,1.50096
9306,45.4473,15221.6,1.51347
9372,45.7695,15315.8,1.52286
9438,46.0918,15434.2,1.53417
9504,46.4141,15538.6,1.545221
9570,46.7363,15657.3,1.55655
9636,47.0586,15748.5,1.56756
9702,47.3809,15862.6,1.57726
9768,47.7031,15968.6,1.5889
9834,48.0254,16080,1.59936
9900,48.3477,16188.2,1.60861
9966,48.6699,16269.7,1.6202
10032,48.9922,16383.8,1.63063
10098,49.3145,16503.2,1.64246
10164,49.6367,16606.5,1.65212
10230,49.959,16706.5,1.66383
10296,50.28125,16813.8,1.67426
10362,50.6035,16923.5,1.68576
10428,50.9258,17035.3,1.69716
10494,51.248,17131,1.70568
10560,51.5703,17236,1.71737
10626,51.8926,17353.7,1.72628
10692,52.2148,17441.8,1.73715
10758,52.5371,17559.7,1.75042
10824,52.8594,17666.8,1.75965
10890,53.1816,17769.8,1.77016
10956,53.5039,17883,1.78167
11022,53.8262,17980.4,1.79308
11088,54.1484,18096.9,1.80353
11154,54.4707,18180.1,1.81287
11220,54.793,18283.2,1.82612
11286,55.1152,18398.6,1.83578
11352,55.4375,18505,1.84447
11418,55.7598,18615.9,1.85631
11484,56.082,18695.5,1.86691
11550,56.4043,18831.8,1.87896
11616,56.7266,18935.2,1.88926
11682,57.0488,19034.4,1.89978
11748,57.3711,19143.9,1.91094
11814,57.6934,19243.6,1.92059
11880,58.0156,19352.8,1.93273
11946,58.3379,19456.2,1.94301
12012,58.6602,19566.9,1.9531
12078,58.9824,19673.2,1.964
12144,59.3047,19779.5,1.9746
12210,59.627,19885.3,1.98615
12276,59.9492,19977.1,1.99605
12342,60.2715,20087.6,2.00689
12408,60.59375,20190.2,2.01782
12474,60.916,20294.4,2.02826
12540,61.2383,20398.1,2.03984
12606,61.5605,20511.2,2.0501
12672,61.8828,20600.5,2.06003
12738,62.2051,20729.6,2.0724
12804,62.5273,20835.8,2.08241
12870,62.8496,20924.9,2.0924
12936,63.1719,21023.7,2.10333
13002,63.4941,21125.6,2.11379
13068,63.8164,21232.6,2.124737
13134,64.1387,21329.4,2.13525
13200,64.4609,21421.5,2.1476
13266,64.7832,21540.5,2.15695
13332,65.1055,21655,2.16971
13398,65.4277,21755.4,2.17983
13464,65.75,21846.2,2.18904
13530,66.0723,21947,2.19941
13596,66.3945,22045.2,2.21041
13662,66.7168,22161.1,2.22251
13728,67.0391,22250.8,2.2311
13794,67.3613,22365.6,2.24306
13860,67.6836,22460.7,2.25396
13926,68.0059,22566.8,2.26367
13992,68.3281,22684,2.27581
14058,68.6504,22769.1,2.28619
14124,68.9727,22869.1,2.29684
14190,69.2949,22986,2.30676
14256,69.6172,23076.8,2.318598
14322,69.9395,23194.8,2.329
14388,70.2617,23276.6,2.340277
14454,70.584,23386.2,2.35041
14520,70.90625,23499,2.36389
14586,71.2285,23607,2.37336
14652,71.5508,23700.3,2.38275
14718,71.873,23784.4,2.39398
14784,72.1953,23905.4,2.40488
14850,72.5176,24015.5,2.41569
14916,72.8398,24119.6,2.4273
14982,73.1621,24217.9,2.43731
15048,73.4844,24310.3,2.44707
15114,73.8066,24413.3,2.45813
15180,74.1289,24513.7,2.46807
15246,74.4512,24613.3,2.4793
15312,74.7734,24712.3,2.4904
15378,75.0957,24826.7,2.5
15444,75.418,24928.3,2.51224
15510,75.7402,25023.9,2.52247
15576,76.0625,25132.9,2.53438
15642,76.3848,25249.5,2.54568
15708,76.707,25355.8,2.55674
15774,77.0293,25449.6,2.56801
15840,77.3516,25538,2.57682
15906,77.6738,25638.5,2.58838
15972,77.9961,25746.8,2.59822
16038,78.3184,25847.6,2.60925
16104,78.6406,25936,2.61948
16170,78.9629,26020.5,2.62911
16236,79.2852,26133.6,2.64103
16302,79.6074,26238.7,2.65087
16368,79.9297,26341.2,2.6631
16434,80.252,26432.3,2.67221
16500,80.5742,26534.2,2.68282
16566,80.8965,26640.7,2.694721
16632,81.21875,26738.4,2.70406
16698,81.541,26837.9,2.71513
16764,81.8633,26925,2.72539
16830,82.1855,27021.9,2.73586
16896,82.5078,27136.1,2.74761
16962,82.8301,27231.8,2.75927
17028,83.1523,27337,2.76914
17094,83.4746,27432.9,2.78066
17160,83.7969,27533.8,2.79061
17226,84.1191,27640.7,2.80125
17292,84.4414,27740.2,2.81202
17358,84.7637,27838.5,2.82196
17424,85.0859,27934.2,2.83295
17490,85.4082,28041.1,2.84374
17556,85.7305,28130.7,2.8546
17622,86.0527,28231.6,2.86693
17688,86.375,28314.4,2.87547
17754,86.6973,28438,2.88791
17820,87.0195,28531.4,2.89836
17886,87.3418,28630.4,2.9091
17952,87.6641,28729.4,2.91873
18018,87.9863,28836.1,2.92915
18084,88.3086,28931,2.94123
18150,88.6309,29033.5,2.95114
18216,88.9531,29123.2,2.96126
18282,89.2754,29232.2,2.97423
18348,89.5977,29322.7,2.98422
18414,89.9199,29434.8,2.99617
18480,90.2422,29523.8,3.00578
18546,90.5645,29613.7,3.01584
18612,90.8867,29718.5,3.02707
18678,91.209,29821.7,3.03792
18744,91.53125,29910.7,3.04925
18810,91.8535,30003.2,3.06019
18876,92.1758,30105,3.07042
18942,92.498,30209.9,3.08248
19008,92.8203,30304.2,3.09222
19074,93.1426,30399.5,3.10259
19140,93.4648,30483.3,3.11319
19206,93.7871,30579.4,3.12342
19272,94.1094,30671.8,3.1355
19338,94.4316,30773.8,3.14594
19404,94.7539,30852.5,3.1557
19470,95.0762,30957.9,3.1669
19536,95.3984,31044.1,3.17737
19600,95.7109,7350.38,3.34437