File: ASM109_2021_data/MTS/UD/MTS_UD_9.csv
,Time [s],Load [N],Displacement [mm]
0,0.0078125,823.605,0.000737211
64,0.3203125,970.516,0.00854637
128,0.6328125,1080.42,0.0197733
192,0.9453125,1170.7,0.0306712
256,1.25781,1273.8,0.0379641
320,1.57031,1415.15,0.0507149
384,1.88281,1528.26,0.0626613
448,2.19531,1628.69,0.0724953
512,2.50781,1739.08,0.08102645
576,2.82031,1836.2,0.0909737
640,3.13281,1962.51,0.102589
704,3.44531,2079.11,0.112556
768,3.75781,2185.31,0.1225636
832,4.07031,2260.35,0.1328342
896,4.38281,2385.21,0.143642
960,4.69531,2511.45,0.154806
1024,5.00781,2631.39,0.1654115
1088,5.32031,2727.03,0.175879
1152,5.63281,2830.86,0.185295
1216,5.94531,2950.65,0.196205
1280,6.25781,3064.89,0.204281
1344,6.57031,3184,0.217473
1408,6.88281,3288.85,0.22644
1472,7.19531,3385.97,0.23781
1536,7.50781,3510.61,0.2479959
1600,7.82031,3619.39,0.259453
1664,8.13281,3728.64,0.268637
1728,8.44531,3817.82,0.27895
1792,8.75781,3925.5,0.288939
1856,9.07031,4048.03,0.299594
1920,9.38281,4164.72,0.310534
1984,9.69531,4273.74,0.323012
2048,10.0078,4361.81,0.331459
2112,10.3203,4473.02,0.340791
2176,10.6328,4593.47,0.352469
2240,10.9453,4698.78,0.361618
2304,11.2578,4810.72,0.372234
2368,11.5703,4907.42,0.383028
2432,11.8828,5015.4,0.391591
2496,12.1953,5149,0.405444
2560,12.5078,5245.77,0.414881
2624,12.8203,5353.45,0.425858
2688,13.1328,5453.22,0.435782
2752,13.4453,5569.41,0.443249
2816,13.7578,5679.88,0.455272
2880,14.0703,5789.98,0.465928
2944,14.3828,5897.33,0.476945
3008,14.6953,5991.32,0.4865813
3072,15.0078,6111.2,0.498284
3136,15.3203,6224.11,0.508882
3200,15.6328,6324.32,0.5191226
3264,15.9453,6432.57,0.529335
3328,16.2578,6511.1,0.538515
3392,16.5703,6642.68,0.54933
3456,16.8828,6751.53,0.560475
3520,17.1953,6871.49,0.571911
3584,17.5078,6957.55,0.581588
3648,17.8203,7068,0.59218
3712,18.1328,7173.4,0.600074
3776,18.4453,7299.4,0.612595
3840,18.7578,7402.6,0.623094
3904,19.0703,7498.88,0.631426
3968,19.3828,7598.19,0.642951
4032,19.6953,7721.31,0.653843
4096,20.0078,7828.45,0.664182
4160,20.3203,7943.67,0.675844
4224,20.6328,8009.96,0.684388
4288,20.9453,8112.69,0.694311
4352,21.2578,8242.04,0.70537
4416,21.5703,8356.58,0.7160005
4480,21.8828,8468.66,0.7272349
4544,22.1953,8579.93,0.738194
4608,22.5078,8671.78,0.747116
4672,22.8203,8779.44,0.756645
4736,23.1328,8895.86,0.767604
4800,23.4453,8997.8,0.77979
4864,23.7578,9092.79,0.788451
4928,24.0703,9202.99,0.799336
4992,24.3828,9317.53,0.809408
5056,24.6953,9435.65,0.819989
5120,25.0078,9537.81,0.831968
5184,25.3203,9623.23,0.841623
5248,25.6328,9734.13,0.8501429
5312,25.9453,9852.12,0.861171
5376,26.2578,9952.85,0.87249
5440,26.5703,10050.7,0.881923
5504,26.8828,10151.6,0.891839
5568,27.1953,10259.5,0.904625
5632,27.5078,10365.4,0.913525
5696,27.8203,10483.3,0.924611
5760,28.1328,10566,0.933906
5824,28.4453,10679.6,0.944964
5888,28.7578,10797.1,0.956325
5952,29.0703,10903.1,0.966383
6016,29.3828,11010.3,0.976148
6080,29.6953,11122.7,0.986384
6144,30.0078,11208.6,0.997295
6208,30.3203,11317.7,1.00753
6272,30.6328,11415.8,1.01807
6336,30.9453,11532.4,1.02969
6400,31.2578,11634.8,1.037877
6464,31.5703,11740.1,1.04872
6528,31.8828,11850.9,1.06215
6592,32.1953,11977.5,1.07197
6656,32.5078,12068.6,1.08081
6720,32.8203,12150.5,1.09042
6784,33.1328,12275.6,1.10043
6848,33.4453,12380,1.11096
6912,33.7578,12499.6,1.12287
6976,34.0703,12593.6,1.13316
7040,34.3828,12699.5,1.14164
7104,34.6953,12807.3,1.15422
7168,35.0078,12911,1.16492
7232,35.3203,13025.3,1.175119
7296,35.6328,13111.4,1.18486
7360,35.9453,13220.8,1.19416
7424,36.2578,13308.5,1.20443
7488,36.5703,13441.9,1.21776
7552,36.8828,13552.6,1.22714
7616,37.1953,13640.8,1.23804
7680,37.5078,13729.2,1.24781
7744,37.8203,13863.6,1.25715
7808,38.1328,13959.1,1.26748
7872,38.4453,14076.8,1.27957
7936,38.7578,14163.9,1.28782
8000,39.0703,14274,1.29989
8064,39.3828,14374.5,1.31024
8128,39.6953,14484.1,1.31999
8192,40.0078,14604.1,1.33184
8256,40.3203,14674.5,1.34221
8320,40.6328,14767.5,1.351068
8384,40.9453,14885.6,1.360671
8448,41.2578,15010.6,1.3733
8512,41.5703,15118.6,1.38346
8576,41.8828,15210.6,1.3937
8640,42.1953,15319.8,1.40436
8704,42.5078,15431,1.4149
8768,42.8203,15526.7,1.42516
8832,43.1328,15623.1,1.43517
8896,43.4453,15737.6,1.44655
8960,43.7578,15832.5,1.45681
9024,44.0703,15946.4,1.46644
9088,44.3828,16062.2,1.4772
9152,44.6953,16161.5,1.4871
9216,45.0078,16241.1,1.49931
9280,45.3203,16363.1,1.50819
9344,45.6328,16469.2,1.51846
9408,45.9453,16574,1.52925
9472,46.2578,16676.7,1.53865
9536,46.5703,16766,1.549176
9600,46.8828,16871.2,1.55909
9664,47.1953,16999.1,1.572
9728,47.5078,17103.5,1.582583
9792,47.8203,17195,1.59121
9856,48.1328,17296.6,1.60237
9920,48.4453,17417.8,1.61354
9984,48.7578,17504.5,1.62374
10048,49.0703,17613.1,1.63262
10112,49.3828,17715.3,1.64309
10176,49.6953,17816.4,1.65498
10240,50.0078,17902.1,1.66306
10304,50.3203,17997.4,1.67403
10368,50.6328,18107.3,1.68434
10432,50.9453,18215.1,1.69629
10496,51.2578,18338.3,1.70605
10560,51.5703,18436.8,1.71731
10624,51.8828,18554.2,1.72776
10688,52.1953,18652.5,1.73829
10752,52.5078,18729.8,1.74743
10816,52.8203,18855.5,1.75717
10880,53.1328,18956.7,1.7683
10944,53.4453,19064.5,1.77973
11008,53.7578,19142.7,1.78911
11072,54.0703,19266.6,1.79969
11136,54.3828,19372.7,1.81074
11200,54.6953,19477.5,1.82021
11264,55.0078,19579,1.83271
11328,55.3203,19678.7,1.84159
11392,55.6328,19760.5,1.85028
11456,55.9453,19890.2,1.86205
11520,56.2578,19998.8,1.87258
11584,56.5703,20097.2,1.88306
11648,56.8828,20199.7,1.89532
11712,57.1953,20299.3,1.9041
11776,57.5078,20409.6,1.91541
11840,57.8203,20513.5,1.92524
11904,58.1328,20603.6,1.93514
11968,58.4453,20700.5,1.94571
12032,58.7578,20808.8,1.95472
12096,59.0703,20925.6,1.9671
12160,59.3828,21049.8,1.97853
12224,59.6953,21141,1.9885
12288,60.0078,21225.8,1.99733
12352,60.3203,21333.1,2.00771
12416,60.6328,21439.6,2.01958
12480,60.9453,21546.9,2.0288
12544,61.2578,21616.9,2.03965
12608,61.5703,21731.7,2.04935
12672,61.8828,21849.9,2.06074
12736,62.1953,21957,2.07091
12800,62.5078,22053.9,2.08158
12864,62.8203,22125.9,2.09135
12928,63.1328,22234.1,2.0998
12992,63.4453,22353.5,2.11273
13056,63.7578,22457.8,2.12326
13120,64.0703,22557.6,2.13407
13184,64.3828,22660.9,2.1431
13248,64.6953,22774.4,2.153765
13312,65.0078,22868.4,2.16508
13376,65.3203,22975.2,2.17479
13440,65.6328,23058.1,2.18507
13504,65.9453,23122.7,2.19531
13568,66.2578,23244.5,2.20371
13632,66.5703,23359.8,2.21722
13696,66.8828,23464.7,2.228
13760,67.1953,23559.2,2.23785
13824,67.5078,23652.4,2.24639
13888,67.8203,23751.9,2.25765
13952,68.1328,23873.7,2.26717
14016,68.4453,23968.9,2.27749
14080,68.7578,24070.1,2.28927
14144,69.0703,24154,2.29962
14208,69.3828,24274.8,2.31079
14272,69.6953,24378.6,2.32052
14336,70.0078,24481.4,2.33309
14400,70.3203,24575.8,2.34196
14464,70.6328,24655.7,2.35207
14528,70.9453,24762.1,2.36142
14592,71.2578,24873.4,2.37149
14656,71.5703,24968.6,2.38335
14720,71.8828,25082.6,2.39311
14784,72.1953,25175.1,2.40347
14848,72.5078,25281.5,2.4144
14912,72.8203,25376.3,2.42514
14976,73.1328,25479.4,2.43591
15040,73.4453,25544,2.44667
15104,73.7578,25656.7,2.4538
15168,74.0703,25773.7,2.46695
15232,74.3828,25879,2.4769
15296,74.6953,25971.2,2.48773
15360,75.0078,26053.9,2.4976
15424,75.3203,26164.3,2.5065
15488,75.6328,26276.9,2.51795
15552,75.9453,26370,2.52836
15616,76.2578,26474.4,2.538712
15680,76.5703,26566.7,2.54914
15744,76.8828,26679.8,2.560353
15808,77.1953,26768.9,2.56896
15872,77.5078,26877.7,2.58286
15936,77.8203,26980.8,2.59176
16000,78.1328,27028.6,2.60004
16064,78.4453,27166.4,2.61053
16128,78.7578,27278.9,2.62275
16192,79.0703,27377.6,2.63293
16256,79.3828,27475.4,2.64342
16320,79.6953,27558.9,2.65407
16384,80.0078,27674.5,2.6648
16448,80.3203,27767.7,2.67431
16512,80.6328,27869,2.68451
16576,80.9453,27961.1,2.69568
16640,81.2578,28048.4,2.70493
16704,81.5703,28152.3,2.7151
16768,81.8828,28253.1,2.726346
16832,82.1953,28375,2.73664
16896,82.5078,28470.7,2.74834
16960,82.8203,28546.5,2.75696
17024,83.1328,28653.7,2.76812
17088,83.4453,28761.1,2.77747
17152,83.7578,28853.6,2.78856
17216,84.0703,28952.4,2.79862
17280,84.3828,29038,2.80932
17344,84.6953,29164.5,2.82058
17408,85.0078,29257.2,2.83077
17472,85.3203,29364,2.84129
17536,85.6328,29431,2.850858
17600,85.9453,29547.8,2.86072
17664,86.2578,29655.8,2.87222
17728,86.5703,29763.7,2.88311
17792,86.8828,29859.6,2.89422
17856,87.1953,29952.7,2.90469
17920,87.5078,30033.8,2.91396
17984,87.8203,30151.4,2.9247
18048,88.1328,30245.7,2.93476
18112,88.4453,30334,2.94417
18176,88.7578,30428.9,2.95487
18240,89.0703,30529,2.9668
18304,89.3828,30608.4,2.97705
18368,89.6953,30699.8,2.98637
18432,90.0078,30802.4,2.99791
18496,90.3203,30889.8,3.00651
18560,90.6328,30985.4,3.01796
18624,90.9453,31084.3,3.02699
18688,91.2578,31183.4,3.03902
18752,91.5703,31265.8,3.049545
18816,91.8828,31372,3.0586
18880,92.1953,31469.4,3.07041
18944,92.5078,31555,3.08122
19008,92.8203,31661.2,3.0904
19072,93.1328,31747.6,3.10215
19098,93.2598,7429.89,3.28239