File: ASM109_2021_data/MTS/UD/MTS_UD_1.csv
,Time [s],Load [N],Displacement [mm]
0,0.0078125,-153.956,-0.000198036
58,0.291016,-102.69,0.00911862
116,0.574219,-12.181,0.017956
174,0.857422,70.4185,0.0279915
232,1.140625,151.534,0.038074
290,1.42383,228.665,0.0453669
348,1.70703,303.875,0.0550407
406,1.99023,391.349,0.065804
464,2.27344,483.616,0.075193
522,2.55664,572.119,0.0852826
580,2.83984,646.638,0.0931567
638,3.12305,722.363,0.102557
696,3.40625,793.87,0.111762
754,3.68945,868.896,0.120446
812,3.97266,974.25,0.132031
870,4.25586,1055.19,0.140858
928,4.53906,1136.69,0.150377
986,4.82227,1216.92,0.158594
1044,5.10547,1295.68,0.167221
1102,5.38867,1377.16,0.178054
1160,5.671875,1463.64,0.187897
1218,5.95508,1543.38,0.199293
1276,6.23828,1622.17,0.207442
1334,6.52148,1705.58,0.215935
1392,6.80469,1791.17,0.224679
1450,7.08789,1868.86,0.234181
1508,7.37109,1957.58,0.244292
1566,7.6543,2040.25,0.25312
1624,7.9375,2120.61,0.263442
1682,8.2207,2200.49,0.272283
1740,8.50391,2279.76,0.282118
1798,8.78711,2360.12,0.291677
1856,9.07031,2452.95,0.301856
1914,9.35352,2525.11,0.310168
1972,9.63672,2611.74,0.320857
2030,9.91992,2681.59,0.328829
2088,10.2031,2758.96,0.3386794
2146,10.4863,2851.46,0.347667
2204,10.7695,2934.24,0.3552027
2262,11.0527,3014.36,0.3669329
2320,11.3359,3098.03,0.374891
2378,11.6191,3175.39,0.383428
2436,11.9023,3262.79,0.395095
2494,12.1855,3345.42,0.402377
2552,12.46875,3435.93,0.4146485
2610,12.752,3515.03,0.42386
2668,13.0352,3597.53,0.43263
2726,13.3184,3677,0.4418613
2784,13.6016,3761.7,0.4516165
2842,13.8848,3841.06,0.461435
2900,14.168,3928.72,0.470185
2958,14.4512,4002.75,0.47856
3016,14.7344,4097.29,0.490453
3074,15.0176,4156.51,0.497138
3132,15.3008,4257.4,0.508335
3190,15.584,4327.19,0.517017
3248,15.8672,4419.6,0.528896
3306,16.1504,4504.59,0.537121
3364,16.4336,4588.2,0.5463
3422,16.7168,4659.66,0.554578
3480,17.0,4735.95,0.565137
3538,17.2832,4812.85,0.573763
3596,17.5664,4914.85,0.585464
3654,17.8496,4997.03,0.592511
3712,18.1328,5072.13,0.601786
3770,18.416,5161.62,0.612032
3828,18.6992,5239.52,0.620279
3886,18.9824,5321.75,0.630355
3944,19.2656,5404,0.640995
4002,19.5488,5494.6,0.651029
4060,19.832,5561.12,0.657678
4118,20.1152,5652.33,0.669454
4176,20.3984,5731.86,0.679549
4234,20.6816,5806.25,0.687595
4292,20.9648,5895.44,0.698248
4350,21.248,5978.48,0.707719
4408,21.53125,6067.79,0.71714
4466,21.8145,6146.21,0.724858
4524,22.0977,6223.14,0.7334702
4582,22.3809,6307.28,0.743824
4640,22.6641,6399.24,0.7546972
4698,22.9473,6477.41,0.763973
4756,23.2305,6553.53,0.772901
4814,23.5137,6639.98,0.781149
4872,23.7969,6710.12,0.791292
4930,24.0801,6805.55,0.801805
4988,24.3633,6882.85,0.812333
5046,24.6465,6961.64,0.81981
5104,24.9297,7034.4,0.827591
5162,25.2129,7115.83,0.838327
5220,25.4961,7202.34,0.848727
5278,25.7793,7285.14,0.857278
5336,26.0625,7379.89,0.867479
5394,26.3457,7457.58,0.877339
5452,26.6289,7529.66,0.885154
5510,26.9121,7615.89,0.89457
5568,27.1953,7702.56,0.9036206
5626,27.4785,7780.59,0.915795
5684,27.7617,7871.51,0.923625
5742,28.0449,7947.99,0.933378
5800,28.3281,8037.78,0.942782
5858,28.6113,8116.43,0.95202
5916,28.8945,8191.32,0.960758
5974,29.1777,8273.72,0.970172
6032,29.4609,8368.56,0.981762
6090,29.7441,8441.19,0.989506
6148,30.0273,8514.49,0.998338
6206,30.3105,8605.91,1.00926
6264,30.59375,8690.97,1.017517
6322,30.877,8768.33,1.02622
6380,31.1602,8854.63,1.03687
6438,31.4434,8936.78,1.04519
6496,31.7266,8997.95,1.05393
6554,32.0098,9094.03,1.06443
6612,32.293,9174.28,1.073898
6670,32.5762,9259.59,1.08356
6728,32.8594,9354.85,1.09336
6786,33.1426,9423.23,1.10178
6844,33.4258,9502.76,1.11157
6902,33.709,9585.14,1.12202
6960,33.9922,9661.05,1.13135
7018,34.2754,9746.89,1.1424
7076,34.5586,9830.52,1.149664
7134,34.8418,9913.11,1.15932
7192,35.125,9988.81,1.1679
7250,35.4082,10062.6,1.17668
7308,35.6914,10164.6,1.18961
7366,35.9746,10254.7,1.19909
7424,36.2578,10309,1.20618
7482,36.541,10394.4,1.21534
7540,36.8242,10480.3,1.22708
7598,37.1074,10564.6,1.23511
7656,37.3906,10651.3,1.24591
7714,37.6738,10725.3,1.25425
7772,37.957,10802,1.26244
7830,38.2402,10878.6,1.27225
7888,38.5234,10971.6,1.28129
7946,38.8066,11054.4,1.29384
8004,39.0898,11136,1.30094
8062,39.373,11214.2,1.31085
8120,39.65625,11293.3,1.31973
8178,39.9395,11379.2,1.33013
8236,40.2227,11453.4,1.33805
8294,40.5059,11532.7,1.348827
8352,40.7891,11625,1.35811
8410,41.0723,11708.7,1.367522
8468,41.3555,11777.5,1.375599
8526,41.6387,11848.1,1.38492
8584,41.9219,11949.2,1.39492
8642,42.2051,12028.7,1.40407
8700,42.4883,12106.3,1.41561
8758,42.7715,12196.3,1.42344
8816,43.0547,12272,1.43269
8874,43.3379,12355.9,1.44232
8932,43.6211,12437.5,1.45199
8990,43.9043,12510.4,1.46087
9048,44.1875,12603.7,1.47301
9106,44.4707,12677.3,1.48111
9164,44.7539,12732.6,1.48866
9222,45.0371,12828.7,1.49871
9280,45.3203,12917.1,1.50933
9338,45.6035,13007.2,1.51969
9396,45.8867,13084,1.52823
9454,46.1699,13161.6,1.53737
9512,46.4531,13231.5,1.54558
9570,46.7363,13328.1,1.55551
9628,47.0195,13393.8,1.56481
9686,47.3027,13491.7,1.57519
9744,47.5859,13569.2,1.58432
9802,47.8691,13650.9,1.5924
9860,48.1523,13714.3,1.60198
9918,48.4355,13810,1.61041
9976,48.71875,13869,1.62081
10034,49.002,13973.9,1.63287
10092,49.2852,14061.3,1.6421
10150,49.5684,14134.1,1.65112
10208,49.8516,14191.2,1.65765
10266,50.1348,14288.7,1.66936
10324,50.418,14364.3,1.67685
10382,50.7012,14460.5,1.68929
10440,50.9844,14534.9,1.69724
10498,51.2676,14604.8,1.70609
10556,51.5508,14698.6,1.71715
10614,51.834,14768.9,1.72509
10672,52.1172,14853.6,1.73369
10730,52.4004,14937.8,1.74385
10788,52.6836,15022.2,1.75474
10846,52.9668,15101.8,1.7627
10904,53.25,15176.2,1.77214
10962,53.5332,15239.3,1.78043
11020,53.8164,15341.7,1.79164
11078,54.0996,15426.9,1.80202
11136,54.3828,15519.2,1.81182
11194,54.666,15586.2,1.82048
11252,54.9492,15660.6,1.82881
11310,55.2324,15748.6,1.83907
11368,55.5156,15825.7,1.84946
11426,55.7988,15903.2,1.85858
11484,56.082,15987,1.86621
11542,56.3652,16073.2,1.87638
11600,56.6484,16147.1,1.88517
11658,56.9316,16210.9,1.89425
11716,57.2148,16314.6,1.9048
11774,57.498,16384.4,1.91513
11832,57.78125,16469.4,1.92503
11890,58.0645,16560.1,1.93406
11948,58.3477,16628.8,1.94072
12006,58.6309,16709.8,1.9509
12064,58.9141,16790.5,1.96155
12122,59.1973,16866.7,1.97145
12180,59.4805,16955.4,1.98063
12238,59.7637,17033.6,1.98993
12296,60.0469,17077.5,1.9981
12354,60.3301,17181.9,2.00809
12412,60.6133,17259.5,2.01788
12470,60.8965,17355.7,2.02836
12528,61.1797,17424.2,2.03675
12586,61.4629,17510.6,2.04719
12644,61.7461,17590.4,2.05542
12702,62.0293,17647.4,2.06349
12760,62.3125,17749.5,2.07434
12818,62.5957,17830.3,2.08451
12876,62.8789,17908.2,2.09421
12934,63.1621,17990.9,2.1032
12992,63.4453,18059.4,2.11069
13050,63.7285,18114.7,2.12098
13108,64.0117,18219.9,2.12983
13166,64.2949,18304.2,2.14019
13224,64.5781,18384.1,2.14926
13282,64.8613,18462.4,2.15989
13340,65.1445,18520,2.1673
13398,65.4277,18605.5,2.17643
13456,65.7109,18707.2,2.18883
13514,65.9941,18777.1,2.19638
13572,66.2773,18859,2.20757
13630,66.5605,18915.3,2.21498
13688,66.84375,19004,2.2248
13746,67.127,19073.2,2.23472
13804,67.4102,19172.4,2.24413
13862,67.6934,19251.7,2.25406
13920,67.9766,19324.6,2.26393
13978,68.2598,19407.9,2.2733
14036,68.543,19475,2.281863
14094,68.8262,19546.5,2.29123
14152,69.1094,19643.6,2.30008
14210,69.3926,19728,2.31027
14268,69.6758,19809.9,2.32112
14326,69.959,19872.7,2.32901
14384,70.2422,19954.9,2.338294
14442,70.5254,20019.9,2.35005
14500,70.8086,20103.9,2.35781
14558,71.0918,20199,2.36827
14616,71.375,20280.3,2.377624
14674,71.6582,20336.3,2.38549
14732,71.9414,20410.5,2.39559
14790,72.2246,20483.3,2.40528
14848,72.5078,20594.5,2.41562
14906,72.791,20667.4,2.42355
14964,73.0742,20750.6,2.43317
15022,73.3574,20830.6,2.442976
15080,73.6406,20888.8,2.45031
15138,73.9238,20967.1,2.46061
15196,74.207,21047,2.47057
15254,74.4902,21146,2.48127
15312,74.7734,21224,2.48999
15370,75.0566,21280.5,2.49847
15428,75.3398,21356,2.50917
15486,75.623,21447.8,2.5189
15544,75.90625,21525.5,2.52821
15602,76.1895,21609.1,2.53812
15660,76.4727,21682.2,2.545399
15718,76.7559,21758.6,2.55528
15776,77.0391,21828.8,2.56555
15834,77.3223,21897.9,2.57543
15892,77.6055,22000.4,2.585
15950,77.8887,22075.7,2.59289
16008,78.1719,22158.6,2.60213
16066,78.4551,22222.7,2.61243
16124,78.7383,22291.1,2.62244
16182,79.0215,22367.6,2.631268
16240,79.3047,22464.6,2.64149
16298,79.5879,22536,2.64998
16356,79.8711,22601.6,2.65937
16414,80.1543,22670.6,2.669486
16472,80.4375,22764.5,2.67797
16530,80.7207,22855.8,2.68957
16588,81.0039,22918.3,2.69843
16646,81.2871,22998.4,2.70739
16704,81.5703,23070.1,2.71576
16762,81.8535,23139.8,2.72566
16820,82.1367,23208.3,2.73395
16878,82.4199,23303.7,2.74553
16936,82.7031,23380.9,2.75459
16994,82.9863,23450.4,2.76302
17052,83.2695,23514.1,2.7714
17110,83.5527,23586.7,2.78155
17168,83.8359,23676.1,2.79159
17226,84.1191,23747,2.80147
17263,84.2998,-5770.45,3.04221