File: ASM109_2021_data/MTS/UD/MTS_UD_2.csv
,Time [s],Load [N],Displacement [mm]
0,0.0078125,-258.2,-0.0003580749
54,0.271484,-128.126,0.00753477
108,0.535156,-49.6676,0.0167696
162,0.798828,44.7134,0.0252704
216,1.0625,155.31,0.0343394
270,1.32617,269.642,0.0441094
324,1.58984,350.92,0.0521158
378,1.85352,451.105,0.0614566
432,2.11719,527.16,0.068007
486,2.38086,595.196,0.0776155
540,2.64453,734.83,0.0862683
594,2.9082,816.67,0.095327
648,3.171875,920.169,0.104518
702,3.43555,1014.06,0.1130712
756,3.69922,1099.87,0.120592
810,3.96289,1196.57,0.13
864,4.22656,1253.49,0.13695
918,4.49023,1336.37,0.147289
972,4.75391,1483.72,0.158078
1026,5.01758,1577.92,0.165415
1080,5.28125,1676.28,0.1743941
1134,5.54492,1770.34,0.1854296
1188,5.80859,1850.16,0.190268
1242,6.07227,1925.58,0.200385
1296,6.33594,2030.16,0.208149
1350,6.59961,2098.83,0.218595
1404,6.86328,2226.51,0.226735
1458,7.12695,2323.1,0.236355
1512,7.390625,2410.02,0.244719
1566,7.6543,2490.32,0.253752
1620,7.91797,2581.2,0.259889
1674,8.18164,2670.33,0.269995
1728,8.44531,2785.08,0.278893
1782,8.70898,2880.84,0.289553
1836,8.97266,2985.38,0.296793
1890,9.23633,3073.46,0.307363
1944,9.5,3171.98,0.314292
1998,9.76367,3246.24,0.323101
2052,10.0273,3317.46,0.331315
2106,10.291,3413.58,0.340546
2160,10.5547,3538.48,0.350016
2214,10.8184,3627.09,0.3581205
2268,11.082,3715.73,0.367937
2322,11.3457,3822.04,0.376235
2376,11.6094,3875.33,0.382142
2430,11.873,3951.13,0.392604
2484,12.1367,4091.43,0.403313
2538,12.4004,4140.32,0.411737
2592,12.6641,4286.15,0.419842
2646,12.9277,4366.25,0.429929
2700,13.1914,4460.43,0.43713
2754,13.4551,4558.26,0.447747
2808,13.71875,4613.03,0.454929
2862,13.9824,4713.42,0.46364
2916,14.2461,4832.42,0.472251
2970,14.5098,4926.77,0.481925
3024,14.7734,5027.14,0.490309
3078,15.0371,5124.6,0.500551
3132,15.3008,5185.98,0.507845
3186,15.5645,5292.91,0.51724
3240,15.8281,5384.2,0.525305
3294,16.0918,5455.06,0.5350976
3348,16.3555,5576.77,0.544224
3402,16.6191,5673.71,0.5536598
3456,16.8828,5774.94,0.562242
3510,17.1465,5867.66,0.571165
3564,17.4102,5919.61,0.577949
3618,17.6738,6024.14,0.587707
3672,17.9375,6128.07,0.595535
3726,18.2012,6208.86,0.604676
3780,18.4648,6326.34,0.614909
3834,18.7285,6422.46,0.62491
3888,18.9922,6488.71,0.630449
3942,19.2559,6584.3,0.64094
3996,19.5195,6666.28,0.648333
4050,19.7832,6754.52,0.6584
4104,20.0469,6879.27,0.668055
4158,20.3105,6954.06,0.6769042
4212,20.5742,7051,0.684872
4266,20.8379,7126.82,0.69348
4320,21.1016,7222.87,0.700112
4374,21.3652,7315.23,0.710106
4428,21.6289,7403.8,0.717711
4482,21.8926,7489.44,0.729346
4536,22.15625,7602.93,0.738039
4590,22.4199,7683.57,0.748174
4644,22.6836,7773.41,0.754271
4698,22.9473,7870.42,0.7626338
4752,23.2109,7929.49,0.77086
4806,23.4746,8051.39,0.78066
4860,23.7383,8148.68,0.790816
4914,24.002,8230.15,0.798415
4968,24.2656,8333.94,0.809184
5022,24.5293,8429.5,0.816974
5076,24.793,8523.44,0.827219
5130,25.0566,8595.06,0.83442
5184,25.3203,8686.65,0.842885
5238,25.584,8790.9,0.852206
5292,25.8477,8875.64,0.861722
5346,26.1113,8977.94,0.871529
5400,26.375,9062.85,0.878075
5454,26.6387,9163.23,0.886904
5508,26.9023,9231.39,0.895924
5562,27.166,9304.51,0.904304
5616,27.4297,9436.46,0.914885
5670,27.6934,9512.24,0.923469
5724,27.957,9620.63,0.932339
5778,28.2207,9707.2,0.943231
5832,28.4844,9778.96,0.947323
5886,28.748,9869.69,0.955261
5940,29.0117,9923.78,0.96326
5994,29.2754,10043.2,0.974477
6048,29.5391,10143.1,0.984075
6102,29.8027,10246.7,0.993081
6156,30.0664,10326.9,1.00057
6210,30.3301,10426.4,1.01051
6264,30.59375,10492,1.0163
6318,30.8574,10567.3,1.0271
6372,31.1211,10671.4,1.03633
6426,31.3848,10768.3,1.04404
6480,31.6484,10877.3,1.05278
6534,31.9121,10963.3,1.06265
6588,32.1758,11052.8,1.07064
6642,32.4395,11144.5,1.08107
6696,32.7031,11221.5,1.08718
6750,32.9668,11306,1.098618
6804,33.2305,11424.7,1.105734
6858,33.4941,11497.1,1.11386
6912,33.7578,11600.4,1.12482
6966,34.0215,11682.3,1.13176
7020,34.2852,11769.7,1.13963
7074,34.5488,11846.3,1.15065
7128,34.8125,11907.3,1.15745
7182,35.0762,12034.2,1.16824
7236,35.3398,12127,1.17819
7290,35.6035,12217.2,1.18478
7344,35.8672,12314.9,1.19316
7398,36.1309,12406.6,1.20276
7452,36.3945,12482.2,1.20971
7506,36.6582,12570.4,1.21991
7560,36.9219,12677.5,1.22967
7614,37.1855,12750.2,1.2372
7668,37.4492,12868.3,1.24648
7722,37.7129,12943.4,1.25567
7776,37.9766,13022.3,1.26393
7830,38.2402,13109.6,1.27487
7884,38.5039,13175,1.27998
7938,38.7676,13288.6,1.289999
7992,39.03125,13385.5,1.29855
8046,39.2949,13469.6,1.30808
8100,39.5586,13565.6,1.31727
8154,39.8223,13666.2,1.32588
8208,40.0859,13737.5,1.333158
8262,40.3496,13823.8,1.34081
8316,40.6133,13906.6,1.3519
8370,40.877,13997.8,1.36074
8424,41.1406,14100.3,1.36981
8478,41.4043,14197.2,1.37937
8532,41.668,14284.4,1.38639
8586,41.9316,14367.5,1.39584
8640,42.1953,14431.7,1.403769
8694,42.459,14544.1,1.41393
8748,42.7227,14632.7,1.4214
8802,42.9863,14720.5,1.43298
8856,43.25,14827.9,1.44165
8910,43.5137,14899.9,1.44788
8964,43.7773,14991.9,1.45609
9018,44.041,15077.2,1.46709
9072,44.3047,15123.3,1.47461
9126,44.5684,15246.5,1.48449
9180,44.832,15348.9,1.49282
9234,45.0957,15427.7,1.50284
9288,45.3594,15526.6,1.51022
9342,45.623,15619.2,1.51941
9396,45.8867,15679.9,1.52605
9450,46.1504,15778.4,1.53666
9504,46.4141,15880.9,1.546103
9558,46.6777,15962.4,1.55517
9612,46.9414,16067.5,1.5627
9666,47.2051,16146.2,1.57164
9720,47.46875,16237.7,1.579931
9774,47.7324,16325.9,1.58901
9828,47.9961,16397.5,1.59678
9882,48.2598,16495.9,1.6079
9936,48.5234,16586.7,1.61564
9990,48.7871,16668.5,1.62533
10044,49.0508,16763.1,1.63364
10098,49.3145,16852.9,1.64145
10152,49.5781,16909.6,1.64976
10206,49.8418,17031.3,1.65973
10260,50.1055,17100.1,1.66886
10314,50.3691,17205.1,1.67697
10368,50.6328,17300,1.68627
10422,50.8965,17381.5,1.69374
10476,51.1602,17477.3,1.70499
10530,51.4238,17566,1.71179
10584,51.6875,17645.2,1.72002
10638,51.9512,17733.4,1.72911
10692,52.2148,17823.4,1.73857
10746,52.4785,17917.4,1.74967
10800,52.7422,18017.8,1.75692
10854,53.0059,18088.6,1.76385
10908,53.2695,18188.7,1.77436
10962,53.5332,18267.7,1.78305
11016,53.7969,18311.9,1.79139
11070,54.0605,18431.7,1.79969
11124,54.3242,18533.6,1.81035
11178,54.5879,18621.7,1.81903
11232,54.8516,18700.9,1.82828
11286,55.1152,18794,1.83722
11340,55.3789,18876.3,1.8444
11394,55.6426,18957.4,1.85282
11448,55.90625,19033.8,1.86162
11502,56.1699,19129.5,1.86962
11556,56.4336,19235.1,1.88105
11610,56.6973,19307.8,1.88901
11664,56.9609,19411.1,1.89685
11718,57.2246,19478.8,1.90479
11772,57.4883,19558.5,1.91201
11826,57.752,19668,1.92238
11880,58.0156,19741.2,1.93338
11934,58.2793,19830.4,1.94253
11988,58.543,19944.5,1.95072
12042,58.8066,20014.3,1.9588
12096,59.0703,20101.4,1.96669
12150,59.334,20188.5,1.97631
12204,59.5977,20258.1,1.98381
12258,59.8613,20358.2,1.99386
12312,60.125,20464.8,2.00167
12366,60.3887,20534.6,2.01231
12420,60.6523,20624.4,2.021066
12474,60.916,20708,2.02954
12528,61.1797,20782.2,2.03737
12582,61.4434,20862.8,2.04601
12636,61.707,20959.6,2.0548
12690,61.9707,21064,2.06491
12744,62.2344,21149.7,2.072593
12798,62.498,21225.7,2.08139
12852,62.7617,21323.5,2.08962
12906,63.0254,21401.5,2.0991
12960,63.2891,21456,2.10732
13014,63.5527,21570.8,2.11669
13068,63.8164,21650.3,2.1267
13122,64.0801,21737,2.13456
13176,64.34375,21841.3,2.14275
13230,64.6074,21920.7,2.15051
13284,64.8711,22014.7,2.16101
13338,65.1348,22083.3,2.1699
13392,65.3984,22147.4,2.17759
13446,65.6621,22266.3,2.18824
13500,65.9258,22348.6,2.19629
13554,66.1895,22430.1,2.20612
13608,66.4531,22526.8,2.21395
13662,66.7168,22594.2,2.22013
13716,66.9805,22662,2.22901
13770,67.2441,22775.8,2.23946
13824,67.5078,22868.7,2.24889
13878,67.7715,22976,2.25857
13932,68.0352,23046.5,2.26606
13986,68.2988,23111.1,2.27639
14040,68.5625,23204.8,2.28277
14094,68.8262,23275.8,2.29026
14148,69.0898,23354.3,2.30027
14202,69.3535,23459.9,2.31042
14256,69.6172,23564,2.31931
14310,69.8809,23646.1,2.32896
14364,70.1445,23736.8,2.33675
14418,70.4082,23815.7,2.3451
14472,70.6719,23897.6,2.35219
14526,70.9355,23987.1,2.36252
14580,71.1992,24072.8,2.37264
14634,71.4629,24165.1,2.38158
14688,71.7266,24268.3,2.39102
14742,71.9902,24340.2,2.39974
14796,72.2539,24423.9,2.40766
14850,72.5176,24497.5,2.41625
14904,72.78125,24568,2.42402
14958,73.0449,24663.3,2.434304
15012,73.3086,24753.8,2.44207
15066,73.5723,24840,2.45112
15120,73.8359,24940,2.4612
15174,74.0996,25004.8,2.46943
15228,74.3633,25092.1,2.47524
15282,74.627,25148.6,2.48574
15336,74.8906,25245.7,2.49406
15390,75.1543,25339.4,2.50383
15444,75.418,25433,2.51244
15498,75.6816,25498.1,2.52075
15552,75.9453,25581.8,2.52928
15606,76.209,25678.9,2.5376
15660,76.4727,25730.8,2.54677
15714,76.7363,25835.2,2.55668
15768,77.0,25910.7,2.56348
15822,77.2637,26012.3,2.57399
15876,77.5273,26110.3,2.58229
15930,77.791,26181.3,2.59119
15962,77.9473,-243.089,2.883481