File: ASM109_2021_data/MTS/UD/MTS_UD_11.csv
,Time [s],Load [N],Displacement [mm]
0,0.0078125,-236.373,0.0002919574
61,0.305664,-196.601,0.0107294
122,0.603516,-101.943,0.0197684
183,0.901367,-12.4696,0.02925
244,1.19922,87.6339,0.0381965
305,1.49707,183.529,0.0477063
366,1.79492,287.893,0.056603
427,2.09277,402.981,0.0682508
488,2.390625,507.978,0.0788882
549,2.68848,599.398,0.0901967
610,2.98633,702.493,0.0972583
671,3.28418,798.025,0.106679
732,3.58203,901.278,0.118999
793,3.87988,1015.3,0.128476
854,4.17773,1117,0.138078
915,4.47559,1214.46,0.147383
976,4.77344,1304.67,0.156843
1037,5.07129,1420.09,0.166901
1098,5.36914,1533.81,0.176464
1159,5.66699,1632.06,0.187101
1220,5.96484,1715.89,0.196732
1281,6.2627,1832.33,0.207027
1342,6.56055,1938.14,0.217079
1403,6.8584,2053.16,0.226695
1464,7.15625,2152.82,0.238768
1525,7.4541,2253,0.249154
1586,7.75195,2355.6,0.256904
1647,8.0498,2462.75,0.266584
1708,8.34766,2558.1,0.277945
1769,8.64551,2661.16,0.287014
1830,8.94336,2767.37,0.296255
1891,9.24121,2859.23,0.30556
1952,9.53906,2960.71,0.317083
2013,9.83691,3068.09,0.327231
2074,10.1348,3172.92,0.336361
2135,10.4326,3267.82,0.345758
2196,10.7305,3368.98,0.356867
2257,11.0283,3468.51,0.366255
2318,11.3262,3572.73,0.375409
2379,11.624,3679.49,0.38751
2440,11.9219,3767.05,0.396293
2501,12.2197,3858.83,0.405854
2562,12.5176,3987.63,0.416278
2623,12.8154,4073.72,0.425931
2684,13.1133,4170.07,0.435673
2745,13.4111,4283.07,0.446908
2806,13.709,4378.88,0.45498
2867,14.0068,4455.37,0.463267
2928,14.3047,4567.92,0.473306
2989,14.6025,4670.18,0.485511
3050,14.9004,4786.96,0.49423
3111,15.1982,4869.03,0.502797
3172,15.4961,4969.71,0.51539
3233,15.7939,5063.43,0.522812
3294,16.0918,5181.76,0.534307
3355,16.3896,5255.21,0.54281
3416,16.6875,5368.59,0.5553
3477,16.9854,5471.02,0.5636366
3538,17.2832,5549.17,0.572044
3599,17.5811,5682.01,0.5829199
3660,17.8789,5762.74,0.593255
3721,18.1768,5872.96,0.604854
3782,18.4746,5955.33,0.61402
3843,18.7725,6082.23,0.62315
3904,19.0703,6168.07,0.633657
3965,19.3682,6258.47,0.644229
4026,19.666,6384.94,0.652678
4087,19.9639,6490.28,0.663977
4148,20.2617,6577.76,0.674056
4209,20.55957,6677.66,0.684212
4270,20.8574,6783.79,0.694004
4331,21.1553,6881.47,0.702463
4392,21.4531,6968.64,0.714512
4453,21.751,7082.27,0.724126
4514,22.0488,7171.72,0.732289
4575,22.34668,7279.62,0.7427339
4636,22.6445,7374.88,0.753876
4697,22.9424,7473.04,0.764422
4758,23.2402,7582.37,0.773744
4819,23.5381,7684.67,0.783393
4880,23.8359,7774.56,0.7929759
4941,24.1338,7877.99,0.802865
5002,24.4316,7964.35,0.813316
5063,24.7295,8073.87,0.822141
5124,25.0273,8158.86,0.832389
5185,25.3252,8276.58,0.843361
5246,25.623,8374.89,0.852402
5307,25.9209,8483.44,0.86323
5368,26.21875,8569.2,0.872944
5429,26.5166,8673.02,0.882339
5490,26.8145,8765.42,0.892036
5551,27.1123,8860.34,0.902401
5612,27.4102,8957.14,0.91078
5673,27.708,9055.84,0.920892
5734,28.0059,9159.73,0.930404
5795,28.3037,9257.5,0.940715
5856,28.6016,9348.21,0.952933
5917,28.8994,9436.1,0.961703
5978,29.1973,9565.26,0.972199
6039,29.4951,9655.44,0.981034
6100,29.793,9754.97,0.99248
6161,30.09082,9858.15,1.0016
6222,30.3887,9955.58,1.01181
6283,30.6865,10044.3,1.02084
6344,30.9844,10144.1,1.03082
6405,31.2822,10244.7,1.04099
6466,31.5801,10342.4,1.05121
6527,31.87793,10435.7,1.06039
6588,32.1758,10559,1.07158
6649,32.4736,10644.8,1.08004
6710,32.7715,10741.5,1.08997
6771,33.0693,10843,1.10071
6832,33.3672,10950.8,1.11033
6893,33.665,11033.1,1.11998
6954,33.9629,11136.3,1.13039
7015,34.2607,11238,1.14069
7076,34.5586,11322.8,1.15112
7137,34.8564,11431.8,1.15936
7198,35.1543,11540.9,1.1712
7259,35.4521,11633.8,1.18118
7320,35.75,11741.2,1.18999
7381,36.0479,11830.1,1.20037
7442,36.3457,11933.3,1.211349
7503,36.6436,12037.5,1.22122
7564,36.9414,12138.5,1.23251
7625,37.2393,12241,1.24196
7686,37.5371,12334.6,1.2508
7747,37.835,12426.9,1.26153
7808,38.1328,12525,1.26998
7869,38.4307,12620.1,1.28113
7930,38.7285,12716,1.29011
7991,39.0264,12807.2,1.29993
8052,39.3242,12907.6,1.31063
8113,39.62207,13012.2,1.32002
8174,39.9199,13115.8,1.330085
8235,40.2178,13219.1,1.33856
8296,40.5156,13289.7,1.34766
8357,40.8135,13397.4,1.35895
8418,41.1113,13507.8,1.36916
8479,41.40918,13596.1,1.37792
8540,41.707,13694.1,1.38859
8601,42.0049,13792,1.39821
8662,42.3027,13892.5,1.40848
8723,42.6006,13970.9,1.4167
8784,42.8984,14071,1.42662
8845,43.1963,14179.2,1.43884
8906,43.4941,14283.8,1.44851
8967,43.792,14380.6,1.45773
9028,44.0898,14460,1.46828
9089,44.3877,14560.4,1.47749
9150,44.6855,14642.1,1.48628
9211,44.9834,14752.7,1.49703
9272,45.28125,14862.7,1.50815
9333,45.5791,14957.1,1.51771
9394,45.877,15051.9,1.52814
9455,46.1748,15162.5,1.53829
9516,46.4727,15248.6,1.54672
9577,46.7705,15348.5,1.55759
9638,47.0684,15458.4,1.56847
9699,47.3662,15548.8,1.57784
9760,47.6641,15647.3,1.58791
9821,47.9619,15746.3,1.59746
9882,48.2598,15836.5,1.60762
9943,48.5576,15938.6,1.615993
10004,48.8555,16029,1.62644
10065,49.15332,16128.2,1.63763
10126,49.4512,16240.9,1.64642
10187,49.749,16332.2,1.6568
10248,50.0469,16402.7,1.66552
10309,50.3447,16516.7,1.67587
10370,50.6426,16620.8,1.68638
10431,50.94043,16700.9,1.69617
10492,51.2383,16814.4,1.70753
10553,51.5361,16909.3,1.71641
10614,51.834,17006.9,1.72516
10675,52.1318,17107.6,1.73572
10736,52.4297,17197,1.74668
10797,52.7275,17298.2,1.75588
10858,53.0254,17400.8,1.76668
10919,53.3232,17495.6,1.77506
10980,53.6211,17583.3,1.7852
11041,53.9189,17678.5,1.79515
11102,54.2168,17782.9,1.80527
11163,54.5146,17875.9,1.81486
11224,54.8125,17971.6,1.82432
11285,55.1104,18064.5,1.83519
11346,55.4082,18171.6,1.84533
11407,55.7061,18254.3,1.85541
11468,56.0039,18355.8,1.86433
11529,56.3018,18456.6,1.87536
11590,56.5996,18539.7,1.88366
11651,56.8975,18660.1,1.89463
11712,57.1953,18745.2,1.90328
11773,57.4932,18831.1,1.91378
11834,57.791,18932.4,1.92368
11895,58.0889,19032.8,1.93407
11956,58.3867,19121.8,1.94346
12017,58.6846,19217.9,1.95406
12078,58.9824,19316.9,1.96414
12139,59.2803,19424.3,1.9749
12200,59.5781,19521.8,1.98443
12261,59.876,19613.1,1.9944
12322,60.1738,19708,2.00449
12383,60.4717,19809.5,2.01429
12444,60.7695,19917.8,2.02438
12505,61.0674,19986.3,2.03388
12566,61.3652,20095.4,2.04277
12627,61.6631,20188.5,2.05259
12688,61.9609,20298.8,2.0636
12749,62.2588,20376.4,2.07443
12810,62.5566,20479.1,2.08152
12871,62.8545,20578.7,2.09324
12932,63.1523,20684,2.10313
12993,63.4502,20767.2,2.11606
13054,63.748,20875.8,2.12302
13115,64.0459,20966.5,2.13258
13176,64.34375,21055.4,2.14211
13237,64.6416,21158.3,2.1529
13298,64.9395,21254.7,2.16321
13359,65.2373,21348,2.17206
13420,65.5352,21435.3,2.1832
13481,65.833,21531.2,2.19326
13542,66.1309,21628.2,2.20209
13603,66.4287,21729.7,2.21279
13664,66.7266,21815.8,2.2238
13725,67.0244,21906.5,2.23293
13786,67.3223,22010.5,2.24257
13847,67.6201,22107.9,2.252774
13908,67.918,22201.8,2.26333
13969,68.21582,22289.9,2.27152
14030,68.5137,22403.6,2.2831
14091,68.8115,22477.9,2.29173
14152,69.1094,22570.1,2.30161
14213,69.4072,22661.7,2.31266
14274,69.7051,22764,2.32094
14335,70.00293,22852.3,2.32979
14396,70.3008,22950.2,2.341877
14457,70.5986,23037.7,2.35105
14518,70.8965,23142.4,2.36213
14579,71.1943,23226,2.37244
14640,71.4922,23316.2,2.380594
14701,71.79,23392.2,2.38946
14762,72.0879,23516.3,2.40064
14823,72.3857,23602.4,2.409802
14884,72.6836,23688,2.42052
14945,72.9814,23802.4,2.43143
15006,73.2793,23880.4,2.439486
15067,73.5771,23980.5,2.4507
15128,73.875,24058.6,2.46022
15189,74.1729,24169,2.47061
15250,74.4707,24269.8,2.47958
15311,74.7686,24367.5,2.48967
15372,75.0664,24449.7,2.50029
15433,75.3643,24544.3,2.50907
15494,75.6621,24644.9,2.5197
15555,75.96,24742.4,2.52995
15616,76.2578,24831.4,2.539804
15677,76.5557,24944.1,2.55092
15738,76.8535,25039,2.56154
15799,77.1514,25138.1,2.57054
15860,77.4492,25231.1,2.58147
15921,77.74707,25328.9,2.59147
15982,78.0449,25417.5,2.60068
16043,78.3428,25493.4,2.60978
16104,78.6406,25589.3,2.61943
16165,78.9385,25670.1,2.6309
16226,79.2363,25779.1,2.64026
16287,79.53418,25859.3,2.64896
16348,79.832,25962.7,2.65899
16409,80.1299,26051.9,2.66986
16470,80.4277,26149.3,2.67946
16531,80.7256,26241.5,2.68802
16592,81.0234,26334.6,2.6986
16653,81.3213,26423,2.70713
16714,81.6191,26506.3,2.71909
16775,81.917,26605.5,2.7276
16836,82.2148,26712.1,2.73835
16897,82.5127,26799.2,2.74859
16958,82.8105,26890.3,2.75753
17019,83.1084,26988.5,2.76857
17080,83.40625,27080.8,2.77803
17141,83.7041,27168,2.7865
17202,84.002,27263.3,2.79717
17263,84.2998,27360.8,2.80984
17324,84.5977,27449,2.81746
17385,84.8955,27547.8,2.82757
17446,85.1934,27631.2,2.83571
17507,85.4912,27747.9,2.84724
17568,85.7891,27822.2,2.85689
17629,86.0869,27919.6,2.86594
17690,86.3848,28017.5,2.87731
17751,86.6826,28104.7,2.8865
17812,86.9805,28184,2.89588
17873,87.27832,28278.9,2.90797
17934,87.5762,28381.7,2.91687
17995,87.874,28476.6,2.92615
18056,88.1719,28559.7,2.93809
18117,88.4697,28658.9,2.94749
18178,88.7676,28749.7,2.95693
18239,89.06543,28838.7,2.96611
18294,89.334,7632.58,3.08041