File: ASM109_2021_data/MTS/UD/MTS_UD_4.csv
,Time [s],Load [N],Displacement [mm]
0,0.0078125,-274.267,0.00242472
62,0.310547,-176.425,0.00763938
124,0.613281,-68.5737,0.0173284
186,0.916016,47.1104,0.0285628
248,1.21875,159.544,0.0382085
310,1.52148,263.586,0.0501962
372,1.82422,380.4,0.0589062
434,2.12695,477.622,0.0688925
496,2.42969,566.44,0.07945329
558,2.73242,677.471,0.0892442
620,3.03516,796.06,0.09974286
682,3.33789,912.525,0.111026
744,3.640625,1018.61,0.1197
806,3.94336,1111.47,0.130198
868,4.24609,1197,0.139083
930,4.54883,1290.16,0.14899
992,4.85156,1394.61,0.157261
1054,5.1543,1515.43,0.169497
1116,5.45703,1618.26,0.179918
1178,5.75977,1739.19,0.190381
1240,6.0625,1843.19,0.200145
1302,6.36523,1922.94,0.208767
1364,6.66797,2038.77,0.219525
1426,6.9707,2129.52,0.229079
1488,7.27344,2231.11,0.23982
1550,7.57617,2358.75,0.250668
1612,7.87891,2467.89,0.260294
1674,8.18164,2574.53,0.270384
1736,8.484375,2664.91,0.279887
1798,8.78711,2748.83,0.290594
1860,9.08984,2832.89,0.298493
1922,9.39258,2954.57,0.308656
1984,9.69531,3077.7,0.318306
2046,9.99805,3197.17,0.330808
2108,10.3008,3300.93,0.340994
2170,10.6035,3385.73,0.3527467
2232,10.90625,3507.24,0.360512
2294,11.209,3589.41,0.370393
2356,11.5117,3693.58,0.379941
2418,11.8145,3815.54,0.391041
2480,12.1172,3929.04,0.401931
2542,12.4199,4043.3,0.412911
2604,12.7227,4131.81,0.423291
2666,13.0254,4220.19,0.431817
2728,13.3281,4336.61,0.440607
2790,13.6309,4434.18,0.451348
2852,13.9336,4536.6,0.4622604
2914,14.2363,4643.35,0.472626
2976,14.5391,4758.33,0.48241
3038,14.8418,4864.2,0.49284
3100,15.1445,4953.69,0.501871
3162,15.4473,5055.53,0.512023
3224,15.75,5150.91,0.522615
3286,16.0527,5255.66,0.532811
3348,16.3555,5367.35,0.5438
3410,16.6582,5470.87,0.55142
3472,16.9609,5581.53,0.564237
3534,17.2637,5669.28,0.574252
3596,17.5664,5781.43,0.582881
3658,17.8691,5869.2,0.593526
3720,18.1719,5959.31,0.603223
3782,18.4746,6059.76,0.612172
3844,18.7773,6181.45,0.622426
3906,19.0801,6285.86,0.6348114
3968,19.3828,6392.79,0.643957
4030,19.6855,6466.6,0.654238
4092,19.9883,6581.49,0.662886
4154,20.291,6659.5,0.672649
4216,20.59375,6786.45,0.684342
4278,20.8965,6906.87,0.69313
4340,21.1992,7007.49,0.704538
4402,21.502,7097.36,0.714726
4464,21.8047,7208.75,0.72561
4526,22.1074,7311.03,0.733038
4588,22.4102,7406.68,0.7425369
4650,22.7129,7505.16,0.753453
4712,23.0156,7622.71,0.764473
4774,23.3184,7722.05,0.7742871
4836,23.6211,7829.38,0.785457
4898,23.9238,7935.73,0.7958
4960,24.2266,8019.47,0.804118
5022,24.5293,8120.5,0.815542
5084,24.832,8204.78,0.823405
5146,25.1348,8331.03,0.83716
5208,25.4375,8435.53,0.845724
5270,25.7402,8538.55,0.856685
5332,26.043,8644.09,0.865338
5394,26.3457,8738.6,0.8779465
5456,26.6484,8822.5,0.884869
5518,26.9512,8915.42,0.896045
5580,27.2539,9040.98,0.907287
5642,27.5566,9146.98,0.916242
5704,27.8594,9246.77,0.92492
5766,28.1621,9346.22,0.937278
5828,28.4648,9454.1,0.948331
5890,28.7676,9537.95,0.956473
5952,29.0703,9634.24,0.965875
6014,29.373,9746.28,0.976148
6076,29.6758,9843.14,0.98581
6138,29.9785,9948.18,0.997417
6200,30.28125,10057.9,1.00706
6262,30.584,10162.4,1.01613
6324,30.8867,10245,1.026616
6386,31.1895,10322.5,1.036
6448,31.4922,10446.6,1.04471
6510,31.7949,10551.3,1.05764
6572,32.0977,10658.3,1.06731
6634,32.4004,10755.4,1.07735
6696,32.7031,10868.3,1.08788
6758,33.0059,10958.4,1.09695
6820,33.3086,11057.9,1.106941
6882,33.6113,11111.3,1.11716
6944,33.9141,11261.7,1.12623
7006,34.2168,11367.7,1.138
7068,34.5195,11482.6,1.15009
7130,34.8223,11572.5,1.1572
7192,35.125,11666.6,1.16999
7254,35.4277,11753.9,1.17891
7316,35.7305,11864.5,1.18749
7378,36.0332,11975.8,1.19872
7440,36.3359,12071.3,1.20984
7502,36.6387,12168.4,1.21991
7564,36.9414,12270.2,1.22917
7626,37.2441,12371.2,1.23977
7688,37.5469,12474.5,1.24963
7750,37.8496,12558.7,1.25957
7812,38.1523,12668.7,1.26704
7874,38.4551,12771.6,1.27975
7936,38.7578,12872.1,1.28867
7998,39.0605,12967.1,1.29891
8060,39.3633,13067.2,1.30885
8122,39.666,13124.4,1.320637
8184,39.96875,13230.9,1.32839
8246,40.2715,13343.6,1.33988
8308,40.5742,13460.8,1.348051
8370,40.877,13557.6,1.35937
8432,41.1797,13665.5,1.36859
8494,41.4824,13767.1,1.38039
8556,41.7852,13869.3,1.38981
8618,42.0879,13940.3,1.40122
8680,42.3906,14034.1,1.40918
8742,42.6934,14160.2,1.41996
8804,42.9961,14280.3,1.43016
8866,43.2988,14385.4,1.44119
8928,43.6016,14464.9,1.45161
8990,43.9043,14573.3,1.46042
9052,44.207,14663.1,1.47084
9114,44.5098,14733.6,1.48057
9176,44.8125,14865,1.49161
9238,45.1152,14962,1.50037
9300,45.418,15084.3,1.511799
9362,45.7207,15174.1,1.522382
9424,46.0234,15274.1,1.53152
9486,46.3262,15367.8,1.54259
9548,46.6289,15465.7,1.55244
9610,46.9316,15570.5,1.56232
9672,47.2344,15672.8,1.57312
9734,47.5371,15778,1.58239
9796,47.8398,15877.9,1.59178
9858,48.1426,15978.6,1.60342
9920,48.4453,16065.5,1.61123
9982,48.748,16159.7,1.62217
10044,49.0508,16258.7,1.63112
10106,49.3535,16361.7,1.64141
10168,49.65625,16469.9,1.65296
10230,49.959,16565.2,1.66281
10292,50.2617,16661.5,1.6737
10354,50.5645,16755.3,1.68235
10416,50.8672,16847,1.69227
10478,51.1699,16942.2,1.70221
10540,51.4727,17050.9,1.7122
10602,51.7754,17153.7,1.72309
10664,52.0781,17247.7,1.73275
10726,52.3809,17338.5,1.74562
10788,52.6836,17446.7,1.75354
10850,52.9863,17547.9,1.76356
10912,53.2891,17616.6,1.77395
10974,53.5918,17742.7,1.78434
11036,53.8945,17855.2,1.79435
11098,54.1973,17948.1,1.80503
11160,54.5,18054.2,1.81437
11222,54.8027,18145.9,1.82497
11284,55.1055,18243.7,1.83418
11346,55.4082,18321.8,1.84405
11408,55.7109,18423,1.85224
11470,56.0137,18535,1.86334
11532,56.3164,18649.8,1.87468
11594,56.6191,18732.6,1.88566
11656,56.9219,18832.1,1.89498
11718,57.2246,18932.6,1.90592
11780,57.5273,19022.9,1.91448
11842,57.8301,19125.1,1.92594
11904,58.1328,19238.2,1.934693
11966,58.4355,19342.6,1.94619
12028,58.7383,19439.1,1.95562
12090,59.041,19541.1,1.9673
12152,59.34375,19632.7,1.97603
12214,59.6465,19705.3,1.98721
12276,59.9492,19825.7,1.99578
12338,60.252,19882.1,2.00631
12400,60.5547,20034.4,2.01934
12462,60.8574,20157,2.02964
12524,61.1602,20248.3,2.04054
12586,61.4629,20357.8,2.05015
12648,61.7656,20427.3,2.06072
12710,62.0684,20522.9,2.06979
12772,62.3711,20621.4,2.07889
12834,62.6738,20737.2,2.09161
12896,62.9766,20837.5,2.100651
12958,63.2793,20932.4,2.11169
13020,63.582,21025.1,2.11907
13082,63.8848,21108.8,2.12982
13144,64.1875,21191.7,2.13778
13206,64.4902,21267.1,2.14732
13268,64.793,21381.7,2.15901
13330,65.0957,21493.9,2.16992
13392,65.3984,21589.5,2.17823
13454,65.7012,21690,2.19034
13516,66.0039,21785.3,2.19889
13578,66.3066,21873.6,2.20767
13640,66.6094,21960.7,2.21839
13702,66.9121,22068.6,2.22875
13764,67.2148,22159.2,2.23897
13826,67.5176,22266.7,2.24888
13888,67.8203,22368.1,2.25927
13950,68.123,22458.2,2.26821
14012,68.4258,22550,2.27779
14074,68.7285,22636.4,2.28985
14136,69.03125,22742.1,2.29827
14198,69.334,22837,2.30944
14260,69.6367,22950,2.31832
14322,69.9395,23029.2,2.32909
14384,70.2422,23133.3,2.33982
14446,70.5449,23214,2.35033
14508,70.8477,23321.3,2.35927
14570,71.1504,23410.8,2.36958
14632,71.4531,23507.6,2.37862
14694,71.7559,23611.3,2.38861
14756,72.0586,23693.6,2.39922
14818,72.3613,23801.4,2.41015
14880,72.6641,23886.7,2.42026
14942,72.9668,23974.2,2.430459
15004,73.2695,24079.3,2.43908
15066,73.5723,24178.3,2.44882
15128,73.875,24288.8,2.45933
15190,74.1777,24376.3,2.46909
15252,74.4805,24467.8,2.47978
15314,74.7832,24570.6,2.49206
15376,75.0859,24653.8,2.50066
15438,75.3887,24757.3,2.51054
15500,75.6914,24856,2.51912
15562,75.9941,24940.8,2.53088
15624,76.2969,25050.7,2.54267
15686,76.5996,25147.6,2.55175
15748,76.9023,25237.3,2.55896
15810,77.2051,25334.6,2.57127
15872,77.5078,25422.1,2.58117
15934,77.8105,25510.8,2.58936
15996,78.1133,25626.2,2.60083
16058,78.416,25725.7,2.61228
16120,78.71875,25832.2,2.6226
16182,79.0215,25911.1,2.63187
16244,79.3242,26006.5,2.64098
16306,79.627,26103.8,2.65201
16368,79.9297,26187.3,2.66049
16430,80.2324,26293.4,2.67066
16492,80.5352,26392.5,2.68255
16554,80.8379,26495.6,2.69161
16616,81.1406,26588.8,2.70194
16678,81.4434,26677.8,2.71323
16740,81.7461,26764.1,2.72184
16802,82.0488,26843.8,2.73234
16864,82.3516,26948.4,2.7421
16926,82.6543,27053.5,2.75329
16988,82.957,27151.7,2.76299
17050,83.2598,27245.6,2.77382
17112,83.5625,27335.5,2.78312
17174,83.8652,27420.3,2.79421
17236,84.168,27510.7,2.80268
17298,84.4707,27591.6,2.81313
17360,84.7734,27705.7,2.82065
17422,85.0762,27786.9,2.8333
17484,85.3789,27905.6,2.84241
17546,85.6816,27988.3,2.85293
17608,85.9844,28080.9,2.86318
17670,86.2871,28161.9,2.87264
17732,86.5898,28254.9,2.88204
17794,86.8926,28357.3,2.89295
17856,87.1953,28461.1,2.90296
17918,87.498,28559.8,2.91364
17980,87.8008,28651.1,2.92319
18042,88.1035,28732.1,2.9338
18104,88.40625,28828.5,2.94313
18166,88.709,28928.7,2.95548
18228,89.0117,29004.8,2.96313
18290,89.3145,29120.2,2.97352
18352,89.6172,29203,2.98527
18414,89.9199,29295.5,2.99411
18476,90.2227,29379.8,3.00471
18538,90.5254,29467.6,3.01508
18580,90.7305,-1490.58,3.21757