File: ASM109_2021_data/MTS/UD/MTS_UD_3.csv
,Time [s],Load [N],Displacement [mm]
0,0.0078125,-67.3398,0.00143677
50,0.251953,45.3533,0.00682533
100,0.496094,135.636,0.0151822
150,0.740234,197.001,0.0232825
200,0.984375,320.815,0.03211543
250,1.22852,410.185,0.0386953
300,1.47266,471.346,0.0456275
350,1.7168,586.224,0.0558704
400,1.96094,672.162,0.0646538
450,2.20508,778.781,0.0718434
500,2.44922,847.961,0.0803702
550,2.69336,969.67,0.0888357
600,2.9375,1056.89,0.0967263
650,3.18164,1123.98,0.103295
700,3.42578,1217.65,0.112567
750,3.66992,1329.01,0.121459
800,3.91406,1419.23,0.130971
850,4.1582,1493.49,0.136265
900,4.40234,1600.96,0.144956
950,4.64648,1699.44,0.1537554
1000,4.890625,1776.19,0.1605
1050,5.13477,1860.65,0.168476
1100,5.37891,1979.4,0.178017
1150,5.62305,2070.52,0.185444
1200,5.86719,2117.7,0.193224
1250,6.11133,2246.55,0.201371
1300,6.35547,2347.12,0.2109459
1350,6.59961,2423.87,0.219189
1400,6.84375,2502.25,0.225967
1450,7.08789,2616.44,0.234751
1500,7.33203,2711.99,0.243351
1550,7.57617,2776.46,0.248577
1600,7.82031,2882.21,0.257738
1650,8.06445,2978.08,0.266975
1700,8.30859,3076.43,0.2753377
1750,8.55273,3149.86,0.2815783
1800,8.796875,3258.36,0.290437
1850,9.04102,3341.96,0.299359
1900,9.28516,3448.93,0.307975
1950,9.5293,3520.74,0.315489
2000,9.77344,3612.51,0.323706
2050,10.0176,3718.1,0.331424
2100,10.2617,3768.86,0.34016
2150,10.5059,3890.4,0.348694
2200,10.75,3971.29,0.357333
2250,10.9941,4077.89,0.3636767
2300,11.2383,4157.97,0.372004
2350,11.4824,4254.4,0.380414
2400,11.7266,4358.95,0.389691
2450,11.9707,4435.92,0.395656
2500,12.2148,4533.55,0.404686
2550,12.459,4617.83,0.412309
2600,12.7031,4720.1,0.420904
2650,12.9473,4809.17,0.428633
2700,13.1914,4899.26,0.43848
2750,13.4355,5007.67,0.446119
2800,13.6797,5081,0.454481
2850,13.9238,5160.81,0.461025
2900,14.168,5265.08,0.470628
2950,14.4121,5371.55,0.478025
3000,14.65625,5428.78,0.48608
3050,14.9004,5539.21,0.494339
3100,15.1445,5637.13,0.503066
3150,15.3887,5723.09,0.511381
3200,15.6328,5792.75,0.518965
3250,15.877,5889.66,0.526921
3300,16.1211,5998.32,0.53622
3350,16.3652,6070.95,0.540731
3400,16.6094,6168.74,0.551277
3450,16.8535,6247.73,0.559851
3500,17.0977,6365.14,0.568552
3550,17.3418,6442.6,0.576231
3600,17.5859,6527.46,0.583505
3650,17.8301,6646.49,0.592601
3700,18.0742,6730.12,0.601275
3750,18.3184,6809.03,0.609299
3800,18.5625,6874.27,0.616166
3850,18.8066,7006.34,0.6251049
3900,19.0508,7088.04,0.63357
3950,19.2949,7170.63,0.640822
4000,19.5391,7265.54,0.6510964
4050,19.7832,7361.66,0.657352
4100,20.0273,7436.45,0.664577
4150,20.2715,7508.69,0.674312
4200,20.5156,7642.73,0.682594
4250,20.7598,7706.45,0.688132
4300,21.0039,7797.21,0.697591
4350,21.248,7890.79,0.706247
4400,21.4922,7998.02,0.715304
4450,21.7363,8066.36,0.721966
4500,21.9805,8164.97,0.730235
4550,22.2246,8254.04,0.739114
4600,22.46875,8343.51,0.7465893
4650,22.7129,8426.54,0.754608
4700,22.957,8522.84,0.762846
4750,23.2012,8610.13,0.772415
4800,23.4453,8703.86,0.7775259
4850,23.6895,8771.06,0.786491
4900,23.9336,8875.03,0.795474
4950,24.1777,8975.44,0.802747
5000,24.4219,9069.98,0.812257
5050,24.666,9134.57,0.819029
5100,24.9102,9242.51,0.829373
5150,25.1543,9337.01,0.836395
5200,25.3984,9412.83,0.844178
5250,25.6426,9505.14,0.853533
5300,25.8867,9605.48,0.861736
5350,26.1309,9696.4,0.86978
5400,26.375,9756.67,0.876232
5450,26.6191,9870.42,0.887272
5500,26.8633,9969.39,0.893487
5550,27.1074,10056.9,0.901981
5600,27.3516,10118.9,0.910486
5650,27.5957,10255.7,0.919829
5700,27.8398,10322.6,0.925249
5750,28.084,10397.8,0.932471
5800,28.3281,10505.7,0.943216
5850,28.5723,10589.4,0.95013
5900,28.8164,10677.9,0.959019
5950,29.0605,10747.8,0.965623
6000,29.3047,10874.3,0.976447
6050,29.5488,10944.8,0.982125
6100,29.793,10998.5,0.989358
6150,30.0371,11090.1,0.999117
6200,30.28125,11226,1.00814
6250,30.5254,11300.8,1.01592
6300,30.7695,11336,1.02354
6350,31.0137,11494.4,1.03194
6400,31.2578,11579.5,1.0393
6450,31.502,11667.5,1.04643
6500,31.7461,11736.2,1.05535
6550,31.9902,11852.6,1.0648
6600,32.2344,11929.9,1.07216
6650,32.4785,12025,1.07995
6700,32.7227,12109.4,1.08873
6750,32.9668,12203.6,1.09893
6800,33.2109,12289.1,1.10332
6850,33.4551,12361.6,1.11226
6900,33.6992,12474.4,1.12242
6950,33.9434,12549.9,1.12993
7000,34.1875,12603.6,1.13584
7050,34.4316,12739.2,1.14565
7100,34.6758,12842.6,1.1557
7150,34.9199,12924.8,1.16315
7200,35.1641,12971.2,1.16949
7250,35.4082,13103.6,1.1793
7300,35.6523,13180.3,1.18611
7350,35.8965,13266.7,1.19456
7400,36.1406,13342.7,1.2032
7450,36.3848,13456.4,1.21125
7500,36.6289,13548.3,1.21959
7550,36.873,13598.1,1.22732
7600,37.1172,13716.4,1.23568
7650,37.3613,13794.1,1.24139
7700,37.6055,13890.5,1.25076
7750,37.8496,13966.6,1.259125
7800,38.09375,14084.8,1.27033
7850,38.3379,14158.5,1.27611
7900,38.582,14247.3,1.28347
7950,38.8262,14335.3,1.29212
8000,39.0703,14430.4,1.300229
8050,39.3145,14513.9,1.30923
8100,39.5586,14555.1,1.31464
8150,39.8027,14698.2,1.32644
8200,40.0469,14771.4,1.33303
8250,40.291,14855.7,1.33975
8300,40.5352,14932.9,1.34831
8350,40.7793,15034.2,1.35666
8400,41.0234,15130.7,1.36576
8450,41.2676,15207.1,1.37507
8500,41.5117,15298.4,1.382
8550,41.7559,15404.9,1.38986
8600,42.0,15478.9,1.39724
8650,42.2441,15539.1,1.40428
8700,42.4883,15661.8,1.41463
8750,42.7324,15747.2,1.42273
8800,42.9766,15818.2,1.43029
8850,43.2207,15915.2,1.43858
8900,43.4648,16014,1.447227
8950,43.709,16099,1.45494
9000,43.9531,16183.6,1.46338
9050,44.1973,16285.6,1.47146
9100,44.4414,16363.3,1.47837
9150,44.6855,16452.6,1.48815
9200,44.9297,16509.8,1.49445
9250,45.1738,16634.1,1.50473
9300,45.418,16716.4,1.51158
9350,45.6621,16792.2,1.51864
9400,45.90625,16880,1.52715
9450,46.1504,16973,1.53642
9500,46.3945,17070.2,1.544475
9550,46.6387,17126,1.55188
9600,46.8828,17251.6,1.561718
9650,47.127,17342.2,1.56931
9700,47.3711,17408.2,1.57709
9750,47.6152,17500.6,1.58616
9800,47.8594,17596.5,1.59414
9850,48.1035,17684.2,1.60131
9900,48.3477,17754.9,1.60838
9950,48.5918,17869.2,1.6183
10000,48.8359,17945.9,1.62498
10050,49.0801,18038.8,1.634
10100,49.3242,18102.5,1.64128
10150,49.5684,18215.5,1.65172
10200,49.8125,18296.9,1.6574
10250,50.0566,18372.6,1.6649
10300,50.3008,18467.3,1.67407
10350,50.5449,18545.5,1.68186
10400,50.7891,18645.9,1.69176
10450,51.0332,18691.3,1.697705
10500,51.2773,18818.1,1.70725
10550,51.5215,18889,1.71461
10600,51.7656,18978.8,1.72371
10650,52.0098,19068.9,1.73108
10700,52.2539,19164.8,1.74002
10750,52.498,19249.2,1.747714
10800,52.7422,19326.2,1.75483
10850,52.9863,19429,1.76608
10900,53.2305,19517.8,1.77186
10950,53.4746,19600.4,1.78004
11000,53.71875,19671.3,1.78945
11050,53.9629,19775.4,1.79709
11100,54.207,19860.5,1.805
11150,54.4512,19934.8,1.81144
11200,54.6953,20007.4,1.82059
11250,54.9395,20113.1,1.82865
11300,55.1836,20212.1,1.83737
11350,55.4277,20256.3,1.84615
11400,55.6719,20382.5,1.85418
11450,55.916,20449.4,1.8633
11500,56.1602,20511.9,1.86907
11550,56.4043,20628.9,1.87798
11600,56.6484,20706.1,1.88523
11650,56.8926,20819.7,1.89401
11700,57.1367,20872.2,1.90186
11750,57.3809,20982.3,1.91118
11800,57.625,21066.9,1.91902
11850,57.8691,21163.4,1.92675
11900,58.1133,21240.4,1.93489
11950,58.3574,21320.7,1.94271
12000,58.6016,21413.7,1.950826
12050,58.8457,21467.4,1.95796
12100,59.0898,21587.5,1.96764
12150,59.334,21682.1,1.97473
12200,59.5781,21769,1.98353
12250,59.8223,21844.4,1.99049
12300,60.0664,21937.3,2.00035
12350,60.3105,22034.1,2.00968
12400,60.5547,22109,2.01635
12450,60.7988,22199.9,2.02583
12500,61.043,22270.4,2.0332
12550,61.2871,22369.4,2.04143
12600,61.53125,22432,2.048
12650,61.7754,22534.9,2.05668
12700,62.0195,22622.7,2.06536
12750,62.2637,22704.7,2.0734
12800,62.5078,22775.4,2.08157
12850,62.752,22876.1,2.09003
12900,62.9961,22953.9,2.09788
12950,63.2402,23028,2.10498
13000,63.4844,23119.5,2.11625
13050,63.7285,23227.5,2.12409
13100,63.9727,23312.3,2.13162
13150,64.2168,23379.2,2.13972
13200,64.4609,23466.9,2.14711
13250,64.7051,23548,2.15693
13300,64.9492,23595.3,2.16198
13350,65.1934,23704.7,2.16998
13400,65.4375,23784.3,2.17909
13450,65.6816,23892,2.18749
13500,65.9258,23954.5,2.19475
13550,66.1699,24064.6,2.20529
13600,66.4141,24148.8,2.21247
13650,66.6582,24205.3,2.21817
13700,66.9023,24299.3,2.22792
13750,67.1465,24379.6,2.23514
13800,67.3906,24478.1,2.24292
13850,67.6348,24550.8,2.25136
13900,67.8789,24651.5,2.25963
13950,68.123,24723,2.267889
14000,68.3672,24808.2,2.27605
14050,68.6113,24881.3,2.28472
14100,68.8555,24967,2.29306
14150,69.0996,25073.1,2.30125
14200,69.34375,25136.7,2.30838
14250,69.5879,25215.1,2.31756
14300,69.832,25304.2,2.3253
14350,70.0762,25411.4,2.33461
14400,70.3203,25469.7,2.34072
14450,70.5645,25547.1,2.34812
14500,70.8086,25650.7,2.35836
14550,71.0527,25728.2,2.36562
14600,71.2969,25803.3,2.3741
14650,71.541,25863,2.38094
14700,71.7852,25982.1,2.391
14750,72.0293,26053.3,2.39804
14800,72.2734,26111.6,2.40558
14845,72.4932,-1161.34,2.56493