File: ASM109_2021_data/MTS/90/MTS_90_3.csv
,Time [s],Load [N],Displacement [mm]
0,0.0078125,339.142,0.195723
28,0.144531,370.477,0.200926
56,0.28125,387.469,0.205768
84,0.417969,401.831,0.20913
112,0.5546875,420.834,0.214226
140,0.691406,447.87,0.219938
168,0.828125,460.597,0.222899
196,0.964844,493.164,0.226572
224,1.10156,505.891,0.230209
252,1.23828,528.234,0.235502
280,1.375,551.447,0.239722
308,1.51172,566.311,0.24672
336,1.64844,580.743,0.249817
364,1.78516,601.238,0.253254
392,1.921875,622.724,0.257263
420,2.05859,640.867,0.263214
448,2.19531,664.877,0.26762
476,2.33203,675.743,0.272906
504,2.46875,707.723,0.276618
532,2.60547,727.389,0.28155
560,2.74219,736.377,0.286367
588,2.87891,760.624,0.290823
616,3.015625,780.722,0.294728
644,3.15234,802.593,0.299603
672,3.28906,819.839,0.30373
700,3.42578,833.967,0.309981
728,3.5625,866.53,0.315188
756,3.69922,889.733,0.321615
784,3.83594,902.04,0.324072
812,3.97266,914.875,0.327326
840,4.109375,943.815,0.333123
868,4.24609,959.452,0.336199
896,4.38281,978.051,0.342182
924,4.51953,1002.22,0.344971
952,4.65625,1017.46,0.350511
980,4.79297,1041.82,0.354588
1008,4.92969,1043.95,0.359062
1036,5.06641,1077.66,0.364705
1064,5.203125,1095.56,0.368046
1092,5.33984,1114.65,0.372148
1120,5.47656,1129.25,0.376242
1148,5.61328,1150.67,0.380749
1176,5.75,1167.45,0.386095
1204,5.88672,1177.83,0.390533
1232,6.02344,1206.93,0.395272
1260,6.16016,1229.76,0.40015
1288,6.296875,1243.39,0.404778
1316,6.43359,1248.14,0.4077065
1344,6.57031,1272.42,0.413543
1372,6.70703,1290.2,0.416815
1400,6.84375,1313.82,0.423449
1428,6.98047,1341.87,0.428292
1456,7.11719,1351.57,0.431854
1484,7.25391,1383.07,0.436707
1512,7.390625,1401.04,0.442135
1540,7.52734,1407.87,0.446026
1568,7.66406,1442.75,0.45094
1596,7.80078,1458.13,0.455561
1624,7.9375,1464.97,0.459201
1652,8.07422,1497.87,0.463725
1680,8.21094,1499.67,0.466862
1708,8.34766,1515.52,0.473585
1736,8.484375,1542.55,0.476332
1764,8.62109,1564.19,0.482969
1792,8.75781,1577.49,0.486277
1820,8.89453,1594.72,0.490068
1848,9.03125,1618.32,0.494771
1876,9.16797,1634.47,0.500042
1904,9.30469,1653.04,0.504713
1932,9.44141,1672.3,0.5084753
1960,9.578125,1686.96,0.513006
1988,9.71484,1701.61,0.51826
2016,9.85156,1712.85,0.522412
2044,9.98828,1737.18,0.527222
2072,10.125,1757.16,0.530441
2100,10.2617,1772.62,0.53598
2128,10.3984,1793.74,0.54088
2156,10.5352,1806.72,0.545908
2184,10.6719,1818.44,0.549198
2212,10.8086,1843.49,0.556186
2240,10.9453,1861.37,0.558997
2268,11.082,1882.74,0.564147
2296,11.21875,1907.41,0.568221
2324,11.3555,1919.4,0.572841
2352,11.4922,1941.57,0.578184
2380,11.6289,1947.52,0.581946
2408,11.7656,1970.04,0.587583
2436,11.9023,1990.35,0.591742
2464,12.0391,2005.83,0.596108
2492,12.1758,2034.11,0.60178
2520,12.3125,2037.47,0.604581
2548,12.4492,2060.24,0.608965
2576,12.5859,2066.72,0.613042
2604,12.7227,2087.43,0.618342
2632,12.8594,2100.32,0.6213963
2660,12.9961,2126.78,0.626836
2688,13.1328,2140.17,0.630759
2716,13.2695,2160.48,0.636417
2744,13.40625,2178.99,0.640676
2772,13.543,2186.37,0.644964
2800,13.6797,2203.91,0.649449
2828,13.8164,2224.89,0.653765
2856,13.9531,2250.28,0.659083
2884,14.0898,2260.96,0.664358
2912,14.2266,2272.74,0.668396
2940,14.3633,2301.11,0.6727159
2968,14.5,2315.47,0.678813
2996,14.6367,2321.89,0.681306
3024,14.7734,2345.22,0.688527
3052,14.9102,2366.18,0.690833
3080,15.0469,2385.58,0.696938
3108,15.1836,2395.82,0.700722
3136,15.3203,2417.92,0.705879
3164,15.457,2434.82,0.70968
3192,15.59375,2450.33,0.714487
3220,15.7305,2469.89,0.718406
3248,15.8672,2485.04,0.724801
3276,16.0039,2497.05,0.729082
3304,16.1406,2514.45,0.732508
3332,16.2773,2537.3,0.736828
3360,16.4141,2550.71,0.741624
3388,16.5508,2555.09,0.747947
3416,16.6875,2569.65,0.752302
3444,16.8242,2605.64,0.754727
3472,16.9609,2617.62,0.760088
3500,17.0977,2632.07,0.76581
3528,17.2344,2631.14,0.766951
3556,17.3711,2657.17,0.773467
3584,17.5078,2670.44,0.77783
3612,17.6445,2683.81,0.782282
3640,17.78125,2706.95,0.78676
3668,17.918,2725.16,0.792224
3696,18.0547,2745.13,0.796512
3724,18.1914,2754.79,0.800672
3752,18.3281,2760.21,0.805532
3780,18.4648,2787.71,0.8087647
3808,18.6016,2798.75,0.815574
3836,18.7383,2818.21,0.818371
3864,18.875,2841.47,0.8240962
3892,19.0117,2854.42,0.827039
3920,19.1484,2861.83,0.834693
3948,19.2852,2882.47,0.838212
3976,19.4219,2903.66,0.842832
4004,19.5586,2913.71,0.847771
4032,19.6953,2931.56,0.852027
4060,19.832,2940.53,0.854194
4088,19.96875,2966.92,0.861651
4116,20.1055,2976.98,0.86292
4144,20.2422,2991.72,0.869368
4172,20.3789,3007.44,0.874718
4200,20.5156,3024.59,0.879439
4228,20.6523,3053.11,0.883316
4256,20.7891,3059.95,0.887786
4284,20.9258,3069.59,0.893412
4312,21.0625,3083.25,0.89653
4340,21.1992,3104.07,0.900646
4368,21.3359,3113.97,0.904734
4396,21.4727,3128.68,0.909369
4424,21.6094,3150.78,0.91502
4452,21.7461,3160.09,0.918342
4480,21.8828,3174.17,0.924221
4508,22.0195,3187.89,0.9282732
4536,22.15625,3204.48,0.933298
4564,22.293,3230.8,0.938283
4592,22.4297,3236.84,0.941087
4620,22.5664,3259.56,0.945393
4648,22.7031,3264.5,0.952227
4676,22.8398,3284.65,0.957595
4704,22.9766,3302,0.959594
4732,23.1133,3315.28,0.965227
4760,23.25,3331.49,0.969822
4788,23.3867,3349.79,0.975666
4816,23.5234,3366.2,0.979693
4844,23.6602,3376.46,0.984986
4872,23.7969,3390.42,0.988973
4900,23.9336,3409.35,0.991791
4928,24.0703,3422.88,0.998164
4956,24.207,3434.41,1.00218
4984,24.34375,3450.6,1.00581
5012,24.4805,3466.57,1.01133
5040,24.6172,3480.46,1.01395
5068,24.7539,3496.06,1.02071
5096,24.8906,3513.21,1.025008
5124,25.0273,3517.43,1.02927
5152,25.1641,3530.21,1.03369
5180,25.3008,3544.83,1.03747
5208,25.4375,3567.49,1.04088
5236,25.5742,3579.72,1.04753
5264,25.7109,3593.14,1.05045
5292,25.8477,3605.15,1.0555
5320,25.9844,3634.28,1.061157
5348,26.1211,3635.78,1.06482
5376,26.2578,3653.04,1.06876
5404,26.3945,3670.73,1.07479
5432,26.53125,3690.76,1.07903
5460,26.668,3702.13,1.08353
5488,26.8047,3714.09,1.08834
5516,26.9414,3735.23,1.09392
5544,27.0781,3743.14,1.0972
5572,27.2148,3765.72,1.10224
5600,27.3516,3778.3,1.10654
5628,27.4883,3792.68,1.11151
5656,27.625,3808.53,1.11603
5684,27.7617,3815.57,1.120398
5712,27.8984,3826.32,1.12634
5740,28.0352,3848.46,1.12873
5768,28.1719,3869.16,1.13401
5796,28.3086,3869.41,1.139034
5824,28.4453,3890.38,1.1432
5852,28.582,3905.15,1.14897
5880,28.71875,3915.97,1.15125
5908,28.8555,3935.45,1.15604
5936,28.9922,3954.98,1.16053
5964,29.1289,3957.37,1.16517
5992,29.2656,3976.15,1.16913
6020,29.4023,3980.28,1.17459
6048,29.5391,3987.51,1.17884
6076,29.6758,4012.91,1.18459
6104,29.8125,4026.95,1.19004
6132,29.9492,4037.64,1.19314
6160,30.0859,4062.73,1.19804
6188,30.2227,4071.16,1.20228
6216,30.3594,4087.58,1.20819
6244,30.4961,4094.3,1.21238
6272,30.6328,4103.53,1.21631
6300,30.7695,4132.97,1.22164
6328,30.90625,4141.54,1.22637
6356,31.043,4143,1.2304
6384,31.1797,4165.58,1.23273
6412,31.3164,4183.09,1.238991
6440,31.4531,4187.41,1.24369
6468,31.5898,4212.81,1.24954
6496,31.7266,4219.8,1.25221
6524,31.8633,4234.99,1.25723
6552,32.0,4243.24,1.26108
6580,32.1367,4267.22,1.2664
6608,32.2734,4275.02,1.27141
6636,32.4102,4292.75,1.27565
6664,32.5469,4301.46,1.280812
6692,32.6836,4321.91,1.28466
6720,32.8203,4330.59,1.2893
6748,32.957,4349.71,1.2936
6776,33.09375,4356.57,1.297617
6804,33.2305,4376.6,1.30091
6832,33.3672,4390.42,1.30766
6860,33.5039,4392.86,1.311661
6888,33.6406,4405.24,1.31611
6916,33.7773,4421.63,1.321696
6944,33.9141,4438.57,1.324904
6972,34.0508,4460.58,1.32951
7000,34.1875,4463.65,1.334517
7028,34.3242,4473.24,1.33833
7056,34.4609,4490.18,1.34492
7084,34.5977,4509.58,1.34813
7112,34.7344,4516.77,1.35244
7140,34.8711,4544.18,1.358428
7168,35.0078,4547.64,1.36313
7196,35.1445,4562.77,1.36758
7224,35.28125,4581.26,1.37196
7252,35.418,4578.79,1.37682
7280,35.5547,4602.13,1.38057
7308,35.6914,4609.01,1.38545
7336,35.8281,4616.65,1.3887
7364,35.9648,4628.45,1.391902
7392,36.1016,4654.11,1.39691
7420,36.2383,4670.6,1.40162
7448,36.375,4684.71,1.40796
7476,36.5117,4692.76,1.41114
7504,36.6484,4705.62,1.41571
7532,36.7852,4710.7,1.42054
7560,36.9219,4720.17,1.42351
7588,37.0586,4739,1.42948
7616,37.1953,4760.88,1.43437
7644,37.332,4753.24,1.438365
7672,37.46875,4778.72,1.44311
7700,37.6055,4795.09,1.44832
7728,37.7422,4814.04,1.45239
7756,37.8789,4813.08,1.45882
7784,38.0156,4825,1.46229
7812,38.1523,4850.88,1.46553
7840,38.2891,4866.66,1.47122
7868,38.4258,4862.26,1.47452
7896,38.5625,4884.92,1.48067
7924,38.6992,4895.69,1.48655
7952,38.8359,4911.53,1.48819
7980,38.9727,4929.14,1.49497
8008,39.1094,4933.99,1.49797
8036,39.2461,4955.91,1.50331
8064,39.3828,4974.18,1.508882
8092,39.5195,4978.6,1.51122
8120,39.65625,4992.77,1.516
8142,39.7637,1674.7,1.54223