File: ASM109_2021_data/MTS/90/MTS_90_8.csv
,Time [s],Load [N],Displacement [mm]
0,0.00683594,-430.079,0.000926256
45,0.2265625,-394.606,0.00570059
90,0.446289,-367.797,0.01266
135,0.666016,-342.576,0.0205994
180,0.885742,-321.484,0.0273085
225,1.10547,-272.508,0.0351191
270,1.3252,-245.236,0.0421035
315,1.54492,-219.642,0.0507796
360,1.76465,-193.398,0.05797863
405,1.984375,-151.884,0.0650167
450,2.2041,-136.005,0.0714862
495,2.42383,-94.1711,0.0780809
540,2.64355,-70.8625,0.0868213
585,2.86328,-38.4331,0.0943601
630,3.08301,-7.4103,0.101048
675,3.30273,19.9142,0.108401
720,3.52246,47.0812,0.114319
765,3.74219,87.5885,0.123135
810,3.96191,104.088,0.131561
855,4.18164,142.61,0.1386416
900,4.40137,151.274,0.145562
945,4.62109,200.439,0.153168
990,4.84082,229.135,0.158329
1035,5.06055,259.743,0.166168
1080,5.28027,270.093,0.173661
1125,5.5,316.886,0.181603
1170,5.71973,333.27,0.189521
1215,5.93945,361.716,0.194975
1260,6.15918,404.327,0.205189
1305,6.37891,427.597,0.211837
1350,6.59863,451.695,0.218486
1395,6.81836,480.641,0.225838
1440,7.03809,506.328,0.233227
1485,7.25781,542.324,0.241367
1530,7.47754,588.056,0.248133
1575,7.69727,585.242,0.254753
1620,7.91699,623.822,0.263211
1665,8.13672,656.89,0.267713
1710,8.35645,680.431,0.27675
1755,8.57617,711.497,0.284178
1800,8.7959,744.466,0.292007
1845,9.015625,778.146,0.298791
1890,9.23535,798.16,0.305468
1935,9.45508,822.298,0.314877
1980,9.6748,862.194,0.321618
2025,9.89453,885.639,0.329508
2070,10.1143,916.887,0.334625
2115,10.334,936.65,0.343237
2160,10.5537,972.425,0.349796
2205,10.7734,1009.44,0.3571558
2250,10.9932,1026.66,0.364097
2295,11.2129,1061.93,0.372806
2340,11.4326,1087.46,0.381206
2385,11.6523,1109.73,0.386692
2430,11.8721,1142.02,0.394503
2475,12.0918,1168.67,0.40177
2520,12.3115,1189.03,0.409477
2565,12.53125,1216.8,0.417334
2610,12.751,1234.02,0.422881
2655,12.9707,1279.15,0.431153
2700,13.19043,1305.74,0.439528
2745,13.4102,1334.22,0.44598
2790,13.6299,1357.74,0.451412
2835,13.8496,1389.26,0.462695
2880,14.0693,1402.15,0.468256
2925,14.2891,1445.15,0.47493
2970,14.5088,1453.49,0.481267
3015,14.7285,1498.64,0.488448
3060,14.9482,1515.1,0.496109
3105,15.168,1545.21,0.505664
3150,15.3877,1570.11,0.510367
3195,15.6074,1586.49,0.517302
3240,15.8271,1620.55,0.525427
3285,16.0469,1648.98,0.534056
3330,16.2666,1683.03,0.540322
3375,16.4863,1707.18,0.5474925
3420,16.7061,1728.2,0.554591
3465,16.9258,1752.56,0.562788
3510,17.1455,1784.31,0.569737
3555,17.3652,1796.28,0.577065
3600,17.585,1838.16,0.584743
3645,17.8047,1852.56,0.591838
3690,18.0244,1888.36,0.598118
3735,18.2441,1911.38,0.60742
3780,18.4639,1932.83,0.614287
3825,18.6836,1972.76,0.622187
3870,18.90332,1985.89,0.627093
3915,19.123,2003.75,0.633792
3960,19.3428,2033.86,0.643798
4005,19.5625,2068.09,0.650668
4050,19.7822,2108.17,0.659037
4095,20.002,2111.6,0.664794
4140,20.22168,2145.31,0.6720221
4185,20.4414,2179.4,0.679214
4230,20.6611,2190.23,0.688033
4275,20.8809,2214.14,0.6936264
4320,21.1006,2243.23,0.702528
4365,21.3203,2279.88,0.710642
4410,21.54,2307.06,0.716711
4455,21.7598,2317.21,0.722748
4500,21.9795,2343.41,0.731428
4545,22.1992,2385.09,0.7387054
4590,22.4189,2394.72,0.747081
4635,22.6387,2424.06,0.75404
4680,22.8584,2442.9,0.761107
4725,23.0781,2472.93,0.768288
4770,23.2979,2511.46,0.775352
4815,23.5176,2521.14,0.784693
4860,23.7373,2548.79,0.790018
4905,23.957,2578.75,0.797932
4950,24.1768,2601.06,0.803851
4995,24.3965,2633.06,0.81223
5040,24.6162,2659.45,0.821207
5085,24.8359,2682.63,0.826038
5130,25.0557,2711.51,0.834446
5175,25.2754,2739.8,0.841548
5220,25.4951,2749.5,0.847864
5265,25.7148,2778.51,0.855206
5310,25.93457,2803.01,0.86252
5355,26.1543,2834.44,0.870327
5400,26.374,2858.39,0.879239
5445,26.59375,2881.48,0.885068
5490,26.8135,2912.7,0.891087
5535,27.0332,2929.36,0.899559
5580,27.25293,2959.21,0.907431
5625,27.4727,2974.84,0.914254
5670,27.6924,2993.2,0.922226
5715,27.9121,3014.12,0.929003
5760,28.1318,3049.36,0.933666
5805,28.3516,3079.2,0.942303
5850,28.5713,3110,0.95119
5895,28.791,3111.17,0.959669
5940,29.0107,3137.89,0.96498
5985,29.2305,3171.36,0.9735775
6030,29.4502,3190.89,0.979868
6075,29.6699,3216.11,0.988079
6120,29.8896,3241.34,0.995203
6165,30.1094,3270.17,1.00188
6210,30.3291,3284.41,1.00887
6255,30.5488,3305.12,1.01753
6300,30.7686,3331.41,1.025269
6345,30.9883,3369.61,1.03315
6390,31.208,3389.25,1.0394
6435,31.4277,3400.76,1.04487
6480,31.6475,3428.07,1.05347
6525,31.8672,3466.45,1.05973
6570,32.0869,3479.18,1.06899
6615,32.3066,3498.41,1.07513
6660,32.5264,3524.76,1.08428
6705,32.7461,3547.58,1.08987
6750,32.96582,3573.5,1.0988
6795,33.1855,3592.29,1.10587
6840,33.4053,3607.07,1.11298
6885,33.625,3648.21,1.11927
6930,33.8447,3669.07,1.12735
6975,34.0645,3686.69,1.13436
7020,34.28418,3698.93,1.14095
7065,34.5039,3744.69,1.148994
7110,34.7236,3771.16,1.15511
7155,34.9434,3783.38,1.16381
7200,35.1631,3816.25,1.17135
7245,35.3828,3822.75,1.17891
7290,35.6025,3849.93,1.18631
7335,35.8223,3870.62,1.19306
7380,36.042,3904.68,1.20048
7425,36.2617,3930.82,1.2079
7470,36.4814,3940.21,1.21505
7515,36.7012,3973.11,1.22213
7560,36.9209,3995.47,1.2284
7605,37.1406,4017.61,1.23678
7650,37.3604,4047.45,1.24466
7695,37.5801,4053.56,1.25252
7740,37.7998,4086.1,1.258657
7785,38.0195,4120.23,1.26536
7830,38.2393,4143.68,1.27291
7875,38.459,4148.23,1.28194
7920,38.6787,4168.42,1.2892
7965,38.8984,4194.65,1.29635
8010,39.1182,4222.51,1.30004
8055,39.3379,4230.9,1.31004
8100,39.5576,4256.52,1.31687
8145,39.7773,4288.52,1.32528
8190,39.99707,4304.16,1.33113
8235,40.2168,4314.98,1.33775
8280,40.4365,4357.45,1.34675
8325,40.65625,4385.9,1.35323
8370,40.876,4391.42,1.36295
8415,41.0957,4411.1,1.36927
8460,41.31543,4431.53,1.37576
8505,41.5352,4457.89,1.38474
8550,41.7549,4485.77,1.39106
8595,41.9746,4510.26,1.399008
8640,42.1943,4518.95,1.40639
8685,42.4141,4559.22,1.41149
8730,42.6338,4559.49,1.41862
8775,42.8535,4589.76,1.42686
8820,43.0732,4607.2,1.43406
8865,43.293,4625.78,1.44076
8910,43.5127,4653.7,1.44844
8955,43.7324,4672.66,1.45681
9000,43.9521,4697.42,1.46323
9045,44.1719,4719.76,1.4708
9090,44.3916,4737.75,1.47689
9135,44.6113,4768.02,1.48555
9180,44.8311,4783.44,1.49463
9225,45.0508,4809.16,1.50101
9270,45.2705,4829.38,1.50734
9315,45.4902,4846.74,1.51565
9360,45.71,4847.87,1.52161
9405,45.9297,4864.03,1.53084
9450,46.1494,4891.08,1.53656
9495,46.3691,4931.56,1.545496
9540,46.5889,4934.49,1.5532
9585,46.8086,4970.9,1.5599
9630,47.02832,4994.35,1.56716
9675,47.248,5010.46,1.57451
9720,47.4678,5034.26,1.57991
9765,47.6875,5053.08,1.58815
9810,47.9072,5076.39,1.59554
9855,48.127,5088.08,1.60243
9900,48.34668,5111.37,1.61013
9945,48.5664,5125.73,1.61794
9990,48.7861,5144.71,1.62489
10035,49.0059,5166.79,1.63187
10080,49.2256,5204.74,1.63976
10125,49.4453,5219.73,1.64664
10170,49.665,5237.15,1.65464
10215,49.8848,5248.27,1.66249
10260,50.1045,5278.04,1.66953
10305,50.3242,5296.92,1.67501
10350,50.5439,5315.67,1.68324
10395,50.7637,5335.76,1.69113
10440,50.9834,5350.85,1.69952
10485,51.2031,5381.7,1.70545
10530,51.4229,5403.59,1.71064
10575,51.6426,5418.66,1.71921
10620,51.8623,5441.49,1.7272
10665,52.082,5474.98,1.73705
10710,52.3018,5485.12,1.74205
10755,52.5215,5497.88,1.74981
10800,52.7412,5513.17,1.75822
10845,52.9609,5542.74,1.7635
10890,53.1807,5553.18,1.77232
10935,53.4004,5561.69,1.77952
10980,53.6201,5586.86,1.7858
11025,53.8398,5611.43,1.7942
11070,54.0596,5641.09,1.80132
11115,54.2793,5661.9,1.80766
11160,54.499,5681.29,1.815623
11205,54.71875,5706.07,1.82319
11250,54.9385,5725.64,1.82932
11295,55.1582,5741.06,1.83798
11340,55.3779,5754.01,1.84454
11385,55.5977,5774.46,1.85099
11430,55.8174,5796.17,1.85997
11475,56.0371,5815.39,1.86738
11520,56.2568,5821.81,1.87384
11565,56.4766,5873.01,1.88102
11610,56.6963,5882.75,1.88863
11655,56.916,5888.81,1.895839
11700,57.1357,5909.64,1.90326
11745,57.3555,5933.02,1.91134
11790,57.5752,5952.91,1.91733
11835,57.7949,5964.27,1.923902
11880,58.0146,5982.73,1.93141
11925,58.2344,6013.13,1.93994
11970,58.4541,6023.32,1.94631
12015,58.6738,6039.9,1.95573
12060,58.8936,6059.16,1.96267
12105,59.1133,6090.57,1.96895
12150,59.333,6100.05,1.97516
12195,59.5527,6117.44,1.98345
12240,59.7725,6127.52,1.99346
12285,59.9922,6146.4,1.99829
12330,60.2119,6172.2,2.00534
12375,60.4316,6182.14,2.01322
12420,60.6514,6204.24,2.02187
12465,60.8711,6231.48,2.02918
12510,61.0908,6245.37,2.03521
12555,61.3105,6266.67,2.041719
12600,61.5303,6283.69,2.04975
12645,61.75,6284.11,2.05675
12690,61.9697,6318.63,2.06482
12735,62.1895,6330.29,2.07242
12780,62.4092,6340.81,2.07938
12825,62.6289,6372.51,2.0871
12870,62.8486,6374.34,2.09413
12915,63.0684,6392.46,2.101
12960,63.2881,6415.83,2.1086
13005,63.5078,6458.77,2.11537
13050,63.7275,6449.87,2.12334
13095,63.9473,6474.58,2.12952
13140,64.167,6473.11,2.13728
13185,64.3867,6513.49,2.145
13230,64.6064,6515.12,2.15235
13258,64.7432,1674.53,2.17796