File: ASM109_2021_data/MTS/90/MTS_90_5.csv
,Time [s],Load [N],Displacement [mm]
0,0.0078125,-413.972,0.000847578
38,0.193359,-390.328,0.00404119
76,0.378906,-352.945,0.0142443
114,0.564453,-327.246,0.018729
152,0.75,-297.614,0.0252879
190,0.935547,-274.325,0.0311601
228,1.12109,-241.405,0.03770113
266,1.30664,-211.964,0.0423896
304,1.49219,-192.463,0.0478578
342,1.67773,-157.638,0.0551641
380,1.86328,-132.536,0.0622988
418,2.04883,-103.323,0.0681424
456,2.234375,-73.8549,0.0748336
494,2.41992,-51.1458,0.07976532
532,2.60547,-32.7153,0.0852263
570,2.79102,-1.8079,0.0930405
608,2.97656,29.2949,0.099721
646,3.16211,59.2133,0.10437
684,3.34766,85.8677,0.110378
722,3.5332,112.562,0.118743
760,3.71875,134.713,0.123678
798,3.9043,161.461,0.12684
836,4.08984,189.483,0.136324
874,4.27539,212.834,0.140154
912,4.46094,247.74,0.147779
950,4.64648,271.404,0.156183
988,4.83203,302.182,0.160972
1026,5.01758,312.29,0.165603
1064,5.203125,349.222,0.172209
1102,5.38867,372.124,0.17979
1140,5.57422,393.297,0.18303
1178,5.75977,434.988,0.191731
1216,5.94531,462.644,0.198623
1254,6.13086,476.707,0.203176
1292,6.31641,509.604,0.209051
1330,6.50195,530.774,0.217016
1368,6.6875,545.318,0.221457
1406,6.87305,581.943,0.2274549
1444,7.05859,604.877,0.236793
1482,7.24414,633.181,0.241549
1520,7.42969,655.229,0.24711
1558,7.61523,689.345,0.252875
1596,7.80078,718.798,0.258751
1634,7.98633,723.281,0.26467
1672,8.171875,764.066,0.272434
1710,8.35742,779.75,0.277952
1748,8.54297,794.998,0.2840209
1786,8.72852,826.977,0.288609
1824,8.91406,853.346,0.2972424
1862,9.09961,865.393,0.302281
1900,9.28516,901.178,0.3098774
1938,9.4707,930.6,0.315127
1976,9.65625,955.913,0.321611
2014,9.8418,975.104,0.326754
2052,10.0273,1001.51,0.333459
2090,10.2129,1035.25,0.340601
2128,10.3984,1042.23,0.345815
2166,10.584,1075.57,0.35236
2204,10.7695,1107,0.35982
2242,10.9551,1121.28,0.36414
2280,11.1406,1145.26,0.370567
2318,11.3262,1181.17,0.378077
2356,11.5117,1191.38,0.381138
2394,11.6973,1209.69,0.388838
2432,11.8828,1242.77,0.397146
2470,12.0684,1269.5,0.402099
2508,12.2539,1296.87,0.40653
2546,12.4395,1326.08,0.412356
2584,12.625,1342.31,0.419437
2622,12.8105,1355.16,0.424654
2660,12.9961,1390.99,0.433241
2698,13.1816,1406.82,0.439399
2736,13.3672,1430.22,0.44431
2774,13.5527,1459.89,0.452328
2812,13.7383,1486.3,0.457746
2850,13.9238,1498.46,0.463471
2888,14.1094,1529.93,0.469841
2926,14.2949,1550.04,0.475577
2964,14.4805,1570.13,0.481778
3002,14.666,1598.13,0.487711
3040,14.8516,1622.53,0.494674
3078,15.0371,1641.52,0.499803
3116,15.2227,1664.26,0.506011
3154,15.4082,1681.62,0.512917
3192,15.59375,1699.46,0.520291
3230,15.7793,1727.71,0.525219
3268,15.9648,1767.99,0.53372
3306,16.1504,1783.93,0.5379653
3344,16.3359,1794.5,0.543902
3382,16.5215,1829.98,0.550189
3420,16.707,1850.01,0.558404
3458,16.8926,1859.44,0.560871
3496,17.0781,1896.26,0.569315
3534,17.2637,1916.11,0.57591
3572,17.4492,1932.15,0.581646
3610,17.6348,1960.8,0.586435
3648,17.8203,1988.27,0.593945
3686,18.0059,1992.73,0.599198
3724,18.1914,2016.49,0.60467
3762,18.377,2049.37,0.612105
3800,18.5625,2068.08,0.6190145
3838,18.748,2081.49,0.624779
3876,18.9336,2126.27,0.632168
3914,19.1191,2137.27,0.636191
3952,19.3047,2151.96,0.641692
3990,19.4902,2185.1,0.648994
4028,19.6758,2214.56,0.6556356
4066,19.8613,2235.39,0.660367
4104,20.0469,2253.28,0.667391
4142,20.2324,2267.78,0.6744647
4180,20.418,2290.67,0.680158
4218,20.6035,2307.62,0.683881
4256,20.7891,2330.07,0.692832
4294,20.9746,2353.04,0.698608
4332,21.1602,2379.88,0.70388
4370,21.3457,2404.93,0.711783
4408,21.53125,2427.57,0.71664
4446,21.7168,2433.55,0.721979
4484,21.9023,2460.81,0.729325
4522,22.0879,2486.76,0.734965
4560,22.2734,2503.31,0.742815
4598,22.459,2526.4,0.749048
4636,22.6445,2545.89,0.753726
4674,22.8301,2569.16,0.760106
4712,23.0156,2594.3,0.765381
4750,23.2012,2610.15,0.772136
4788,23.3867,2626.66,0.779625
4826,23.5723,2652.47,0.785519
4864,23.7578,2673.1,0.792961
4902,23.9434,2698.62,0.797718
4940,24.1289,2715.87,0.802535
4978,24.3145,2743.71,0.809265
5016,24.5,2765.49,0.815721
5054,24.6855,2774.69,0.821393
5092,24.8711,2815.74,0.82768
5130,25.0566,2820.01,0.835118
5168,25.2422,2842.72,0.840003
5206,25.4277,2859.32,0.847671
5244,25.6133,2882.03,0.854355
5282,25.7988,2890.59,0.85899
5320,25.9844,2920.07,0.864455
5358,26.1699,2943.35,0.871457
5396,26.3555,2971.6,0.877565
5434,26.541,2986.14,0.883069
5472,26.7266,3003.52,0.889921
5510,26.9121,3019.69,0.894338
5548,27.0977,3029.18,0.901723
5586,27.2832,3063.57,0.909476
5624,27.46875,3087.04,0.915349
5662,27.6543,3108.57,0.920427
5700,27.8398,3130.57,0.927519
5738,28.0254,3151.64,0.934142
5776,28.2109,3168.47,0.938823
5814,28.3965,3185.56,0.944817
5852,28.582,3211.39,0.952806
5890,28.7676,3226.19,0.959036
5928,28.9531,3242.54,0.964715
5966,29.1387,3269.67,0.971045
6004,29.3242,3277.83,0.975934
6042,29.5098,3287.36,0.981563
6080,29.6953,3315.41,0.989749
6118,29.8809,3349.11,0.995271
6156,30.0664,3358.75,1.00172
6194,30.252,3378.08,1.00807
6232,30.4375,3416.52,1.0147
6270,30.623,3416.33,1.01976
6308,30.8086,3428.59,1.02437
6346,30.9941,3458.35,1.03347
6384,31.1797,3475.2,1.03962
6422,31.3652,3493.71,1.0437
6460,31.5508,3522.34,1.05209
6498,31.7363,3543.53,1.05627
6536,31.9219,3561.91,1.062727
6574,32.1074,3570.74,1.06951
6612,32.293,3608.91,1.07523
6650,32.4785,3606.17,1.08142
6688,32.6641,3639.31,1.08733
6726,32.8496,3648.15,1.09451
6764,33.0352,3674.73,1.10104
6802,33.2207,3686.65,1.10491
6840,33.40625,3712.59,1.11312
6878,33.5918,3726.17,1.11839
6916,33.7773,3752.82,1.1253
6954,33.9629,3757.49,1.13137
6992,34.1484,3792.84,1.14
7030,34.334,3800.57,1.14316
7068,34.5195,3821.65,1.14994
7106,34.7051,3843.33,1.15669
7144,34.8906,3854.74,1.161
7182,35.0762,3878.22,1.16795
7220,35.2617,3901.57,1.17638
7258,35.4473,3916.73,1.180079
7296,35.6328,3935.99,1.18735
7334,35.8184,3949.46,1.19317
7372,36.0039,3972.24,1.1999
7410,36.1895,3997.7,1.20551
7448,36.375,4015.45,1.21205
7486,36.5605,4026.4,1.21776
7524,36.7461,4044.19,1.22361
7562,36.9316,4072.56,1.22964
7600,37.1172,4079.51,1.23738
7638,37.3027,4087.72,1.24214
7676,37.4883,4120.21,1.250217
7714,37.6738,4127.87,1.25561
7752,37.8594,4141.22,1.26194
7790,38.0449,4173.39,1.267215
7828,38.2305,4180.49,1.27543
7866,38.416,4201.8,1.27964
7904,38.6016,4221.67,1.28806
7942,38.7871,4242.39,1.29184
7980,38.9727,4258.58,1.29988
8018,39.1582,4276.65,1.304251
8056,39.34375,4304.79,1.31255
8094,39.5293,4304.79,1.3172
8132,39.7148,4318.51,1.32065
8170,39.9004,4354.73,1.328634
8208,40.0859,4362.91,1.336441
8246,40.2715,4381.65,1.34102
8284,40.457,4399.67,1.34881
8322,40.6426,4424.75,1.35464
8360,40.8281,4445.39,1.36001
8398,41.0137,4460.08,1.36611
8436,41.1992,4487.19,1.37413
8474,41.3848,4491.03,1.38025
8512,41.5703,4503.44,1.38354
8550,41.7559,4526.8,1.39192
8588,41.9414,4533.13,1.39746
8626,42.127,4564.39,1.40347
8664,42.3125,4575.61,1.41002
8702,42.498,4589.8,1.41527
8740,42.6836,4604.36,1.42183
8778,42.8691,4619.2,1.42727
8816,43.0547,4649.98,1.43597
8854,43.2402,4655.42,1.43969
8892,43.4258,4678.63,1.4463
8930,43.6113,4696.1,1.45215
8968,43.7969,4701.83,1.46028
9006,43.9824,4725,1.465
9044,44.168,4755.44,1.47181
9082,44.3535,4768.36,1.47891
9120,44.5391,4774.6,1.48216
9158,44.7246,4801.6,1.49133
9196,44.9102,4819.18,1.49736
9234,45.0957,4821.52,1.50267
9272,45.28125,4844.1,1.51049
9310,45.4668,4863.73,1.51538
9348,45.6523,4891.03,1.52226
9386,45.8379,4906.41,1.52732
9424,46.0234,4925.44,1.53419
9462,46.209,4936.68,1.53928
9500,46.3945,4949.32,1.54446
9538,46.5801,4964.81,1.55237
9576,46.7656,4989,1.55982
9614,46.9512,5009.5,1.56333
9652,47.1367,5018.63,1.57126
9690,47.3223,5037.82,1.57675
9728,47.5078,5049.25,1.58157
9766,47.6934,5069.05,1.58974
9804,47.8789,5077.87,1.5957
9842,48.0645,5102.25,1.60213
9880,48.25,5127.94,1.60803
9918,48.4355,5139.13,1.61475
9956,48.6211,5147.95,1.62064
9994,48.8066,5159.01,1.62528
10032,48.9922,5172.22,1.63358
10070,49.1777,5186.26,1.63896
10108,49.3633,5210.47,1.64512
10146,49.5488,5227.51,1.6508
10184,49.7344,5244.75,1.65791
10222,49.9199,5257.17,1.66072
10260,50.1055,5279.02,1.67041
10298,50.291,5285.3,1.67554
10336,50.4766,5298.34,1.68339
10374,50.6621,5329.94,1.68798
10412,50.8477,5354.28,1.69471
10450,51.0332,5351.52,1.70046
10488,51.21875,5379.17,1.70702
10526,51.4043,5394.52,1.71211
10564,51.5898,5415.42,1.71916
10602,51.7754,5415.92,1.72611
10640,51.9609,5444.96,1.73204
10678,52.1465,5451.92,1.73765
10716,52.332,5458.57,1.74209
10754,52.5176,5487.78,1.75077
10792,52.7031,5503.36,1.7565
10830,52.8887,5514.31,1.76186
10868,53.0742,5519.95,1.76794
10906,53.2598,5526.66,1.774832
10944,53.4453,5559.22,1.78098
10982,53.6309,5575.88,1.78763
11020,53.8164,5588.95,1.79403
11058,54.002,5601.38,1.79905
11096,54.1875,5609.13,1.80558
11134,54.373,5631.57,1.81326
11172,54.5586,5646.55,1.81775
11210,54.7441,5652.69,1.82328
11248,54.9297,5684.02,1.83046
11281,55.0908,-1272.9,1.86537