File: ASM109_2021_data/MTS/90/MTS_90_4.csv
,Time [s],Load [N],Displacement [mm]
0,0.00683594,-395.886,0.00180602
36,0.182617,-358.428,0.005146265
72,0.358398,-341.045,0.0101459
108,0.53418,-310.739,0.0147736
144,0.709961,-273.825,0.0235212
180,0.885742,-250.868,0.0295007
216,1.06152,-224.989,0.0354481
252,1.2373,-201.012,0.0400043
288,1.41309,-184.845,0.046134
324,1.58887,-137.143,0.0510621
360,1.76465,-133.118,0.0581646
396,1.94043,-96.6588,0.0647557
432,2.11621,-64.4608,0.0692046
468,2.29199,-42.3299,0.0754166
504,2.46777,-13.5968,0.08040905
540,2.64355,2.01271,0.0855196
576,2.81934,32.7224,0.0926685
612,2.99512,64.6853,0.100268
648,3.1709,93.2385,0.106065
684,3.34668,106.548,0.1107502
720,3.52246,138.755,0.116229
756,3.69824,166.754,0.123446
792,3.87402,186.823,0.128217
828,4.0498,224.699,0.134783
864,4.22559,236.354,0.141013
900,4.40137,264.558,0.146534
936,4.57715,284.029,0.1518631
972,4.75293,301.137,0.156562
1008,4.92871,338.511,0.164137
1044,5.10449,353.903,0.170184
1080,5.28027,398.252,0.175513
1116,5.45605,414.298,0.180491
1152,5.63184,435.574,0.187547
1188,5.80762,463.202,0.192876
1224,5.9834,488.838,0.199074
1260,6.15918,505.701,0.203208
1296,6.33496,537.934,0.208329
1332,6.51074,552.582,0.216655
1368,6.68652,588.461,0.22316
1404,6.8623,608.352,0.22949
1440,7.03809,633.541,0.232319
1476,7.21387,658.055,0.239178
1512,7.38965,683.175,0.246102
1548,7.56543,714.648,0.250154
1584,7.74121,722.449,0.256956
1620,7.91699,754.168,0.262384
1656,8.09277,788.04,0.270209
1692,8.26855,804.87,0.2741611
1728,8.44434,825.829,0.279572
1764,8.62012,847.64,0.28651
1800,8.7959,874.864,0.291803
1836,8.97168,897.196,0.296999
1872,9.14746,919.496,0.303268
1908,9.32324,946.871,0.309645
1944,9.49902,958.606,0.316629
1980,9.6748,988.812,0.322237
2016,9.85059,1016.02,0.325817
2052,10.0264,1037.52,0.333413
2088,10.2021,1051.96,0.338151
2124,10.3779,1080.02,0.343012
2160,10.5537,1106.5,0.350096
2196,10.7295,1125.8,0.355486
2232,10.9053,1158.52,0.362552
2268,11.0811,1165.45,0.367463
2304,11.2568,1184.31,0.373614
2340,11.4326,1215.34,0.378517
2376,11.6084,1239.79,0.386074
2412,11.7842,1271.55,0.392618
2448,11.96,1290.92,0.396105
2484,12.1357,1304.1,0.402625
2520,12.3115,1333.87,0.409559
2556,12.4873,1356.02,0.414766
2592,12.6631,1379.16,0.421257
2628,12.8389,1404.25,0.425652
2664,13.0146,1439.08,0.432519
2700,13.19043,1445.26,0.438008
2736,13.3662,1481.66,0.445029
2772,13.542,1478.22,0.44947
2808,13.7178,1506.55,0.457002
2844,13.8936,1540.36,0.462044
2880,14.0693,1559.73,0.4678452
2916,14.2451,1573.93,0.472466
2952,14.4209,1600.18,0.479414
2988,14.59668,1613.23,0.485966
3024,14.7725,1643.71,0.492582
3060,14.9482,1656.92,0.495222
3096,15.124,1688.08,0.503415
3132,15.2998,1718.94,0.509284
3168,15.4756,1729.27,0.512992
3204,15.6514,1744.02,0.518904
3240,15.8271,1777.88,0.523739
3276,16.00293,1796.83,0.532079
3312,16.1787,1821.66,0.537915
3348,16.3545,1847.59,0.544184
3384,16.5303,1854.07,0.550128
3420,16.7061,1882.47,0.554799
3456,16.8818,1904.56,0.5624342
3492,17.0576,1921.06,0.566089
3528,17.2334,1944.07,0.571554
3564,17.40918,1973.87,0.579944
3600,17.585,1997.34,0.585995
3636,17.7607,2004.33,0.590497
3672,17.9365,2025.88,0.595908
3708,18.1123,2057.73,0.601641
3744,18.2881,2083.61,0.608704
3780,18.4639,2088.99,0.613886
3816,18.6396,2105.89,0.6190896
3852,18.81543,2137.23,0.625967
3888,18.9912,2159.26,0.631524
3924,19.167,2178.61,0.638469
3960,19.3428,2196.47,0.643805
3996,19.5186,2226.27,0.649499
4032,19.6943,2243.69,0.65589
4068,19.8701,2258.91,0.660878
4104,20.0459,2287.07,0.665799
4140,20.22168,2309.4,0.673742
4176,20.3975,2324.51,0.679028
4212,20.5732,2356.87,0.685083
4248,20.749,2364.22,0.689145
4284,20.9248,2392.22,0.695529
4320,21.1006,2411.44,0.702235
4356,21.2764,2430.81,0.708514
4392,21.4521,2452.76,0.713511
4428,21.62793,2462.72,0.719143
4464,21.8037,2495.04,0.7264924
4500,21.9795,2510.8,0.733166
4536,22.1553,2530.59,0.737014
4572,22.3311,2555.05,0.743169
4608,22.5068,2575.38,0.747507
4644,22.6826,2599.49,0.756837
4680,22.8584,2606.68,0.76056
4716,23.03418,2625.6,0.7664001
4752,23.21,2652.47,0.771489
4788,23.3857,2662.2,0.778502
4824,23.5615,2710.53,0.7844
4860,23.7373,2709.78,0.789853
4896,23.9131,2731.92,0.795439
4932,24.0889,2755.44,0.802252
4968,24.2646,2776.03,0.807753
5004,24.44043,2788.91,0.811669
5040,24.6162,2813.08,0.818678
5076,24.792,2825.78,0.825455
5112,24.9678,2842.05,0.831081
5148,25.1436,2865,0.835598
5184,25.3193,2885.74,0.841302
5220,25.4951,2904.36,0.847689
5256,25.6709,2927.71,0.855592
5292,25.84668,2948.56,0.859076
5328,26.0225,2958.1,0.866143
5364,26.1982,2980.88,0.872183
5400,26.374,3004.59,0.879858
5436,26.5498,3009.36,0.883344
5472,26.7256,3043,0.888573
5508,26.9014,3062.66,0.896906
5544,27.0771,3074.82,0.901129
5580,27.25293,3100.17,0.907216
5616,27.4287,3111.46,0.91189
5652,27.6045,3145.57,0.917816
5688,27.7803,3156.49,0.925301
5724,27.9561,3176.91,0.929503
5760,28.1318,3188.36,0.934474
5796,28.3076,3221.62,0.943015
5832,28.4834,3243.72,0.948572
5868,28.65918,3245.84,0.955317
5904,28.835,3254.53,0.959072
5940,29.0107,3281.15,0.965474
5976,29.1865,3313.2,0.971389
6012,29.3623,3326.45,0.979221
6048,29.5381,3340.82,0.983151
6084,29.7139,3361.2,0.988923
6120,29.8896,3374.76,0.9962368
6156,30.06543,3409.47,1.00314
6192,30.2412,3414.75,1.00527
6228,30.417,3438.25,1.01213
6264,30.5928,3465,1.02033
6300,30.7686,3482.97,1.02478
6336,30.9443,3488.16,1.02839
6372,31.1201,3504.95,1.03441
6408,31.2959,3530.41,1.04267
6444,31.47168,3549.17,1.04824
6480,31.6475,3562.12,1.05349
6516,31.8232,3581.06,1.05858
6552,31.999,3599.99,1.066
6588,32.1748,3614.67,1.07164
6624,32.3506,3636.81,1.07831
6660,32.5264,3651.24,1.08208
6696,32.7021,3672.48,1.0896
6732,32.87793,3699.48,1.0958
6768,33.0537,3719.42,1.10202
6804,33.2295,3732.78,1.10621
6840,33.4053,3748.96,1.11324
6876,33.5811,3771.79,1.11876
6912,33.7568,3784.91,1.1243
6948,33.9326,3789.11,1.13004
6984,34.1084,3826.77,1.13705
7020,34.28418,3837.35,1.14353
7056,34.46,3854.33,1.14737
7092,34.6357,3875.83,1.15319
7128,34.8115,3895.3,1.15938
7164,34.9873,3913.02,1.1665
7200,35.1631,3929.23,1.16952
7236,35.3389,3943.09,1.17716
7272,35.5146,3956.15,1.18394
7308,35.69043,3981.31,1.1909
7344,35.8662,4004.07,1.19602
7380,36.042,4016,1.20169
7416,36.2178,4029.71,1.20682
7452,36.3936,4047.55,1.21329
7488,36.5693,4065.65,1.21848
7524,36.7451,4076.25,1.22374
7560,36.9209,4098.72,1.22987
7596,37.09668,4115.86,1.23664
7632,37.2725,4136.57,1.2421
7668,37.4482,4152.29,1.24707
7704,37.624,4154.82,1.25173
7740,37.7998,4188.62,1.25953
7776,37.9756,4204.23,1.26777
7812,38.1514,4220.2,1.27111
7848,38.3271,4232.94,1.27581
7884,38.50293,4250.45,1.28197
7920,38.6787,4267.04,1.29089
7956,38.8545,4289.04,1.29564
7992,39.0303,4303.31,1.29765
8028,39.2061,4314.61,1.30719
8064,39.3818,4338.81,1.31183
8100,39.5576,4343.2,1.31679
8136,39.7334,4358.01,1.32245
8172,39.90918,4382.07,1.33007
8208,40.085,4405.91,1.336863
8244,40.2607,4426.41,1.34129
8280,40.4365,4430.59,1.34641
8316,40.6123,4442.26,1.35167
8352,40.7881,4470.08,1.35836
8388,40.9639,4490.99,1.36433
8424,41.1396,4497.4,1.37014
8460,41.31543,4519.12,1.37611
8496,41.4912,4547.77,1.382786
8532,41.667,4561.76,1.388762
8568,41.8428,4565.72,1.39356
8604,42.0186,4587.25,1.39979
8640,42.1943,4604.04,1.405499
8676,42.3701,4616.18,1.41155
8712,42.5459,4637.78,1.41868
8748,42.72168,4638.57,1.42194
8784,42.8975,4658.93,1.42917
8820,43.0732,4688.16,1.43638
8856,43.249,4702.07,1.44113
8892,43.4248,4715.14,1.4457
8928,43.6006,4725.45,1.45169
8964,43.7764,4757.14,1.4595
9000,43.9521,4767.83,1.4657
9036,44.12793,4776.89,1.469965
9072,44.3037,4800.56,1.47561
9108,44.4795,4815.82,1.48308
9144,44.6553,4827.63,1.48698
9180,44.8311,4836.84,1.49362
9216,45.0068,4869.94,1.49799
9252,45.1826,4886.03,1.504612
9288,45.3584,4899.75,1.5109
9324,45.53418,4907.67,1.51662
9360,45.71,4927.45,1.52067
9396,45.8857,4945.18,1.52988
9432,46.0615,4964.73,1.534
9468,46.2373,4978.09,1.54053
9504,46.4131,4989.46,1.54479
9540,46.5889,5012.27,1.55262
9576,46.7646,5026.63,1.55806
9612,46.94043,5035.82,1.56422
9648,47.1162,5060.11,1.56958
9684,47.292,5069.88,1.57574
9720,47.4678,5086.17,1.58274
9756,47.6436,5114.14,1.58685
9792,47.8193,5100.83,1.59171
9828,47.9951,5139.13,1.59955
9864,48.1709,5150.47,1.6048
9900,48.34668,5163.45,1.6098
9936,48.5225,5172.34,1.61642
9972,48.6982,5189.24,1.621474
10008,48.874,5215.45,1.63113
10044,49.0498,5227.62,1.63422
10080,49.2256,5238.94,1.63948
10116,49.4014,5250.97,1.644752
10152,49.5771,5267.14,1.65162
10188,49.75293,5285.63,1.65887
10224,49.9287,5298.78,1.6622
10260,50.1045,5312.04,1.6675
10296,50.2803,5334.95,1.674782
10332,50.4561,5339.49,1.68211
10368,50.6318,5357.21,1.687
10404,50.8076,5375.91,1.692152
10440,50.9834,5396.14,1.69827
10476,51.15918,5403.54,1.7046
10512,51.335,5419.31,1.70974
10540,51.47168,430.413,1.74814