File: ASM109_2021_data/MTS/90/MTS_90_6.csv
,Time [s],Load [N],Displacement [mm]
0,0.0078125,-395.94,0.00174165
40,0.203125,-352.692,0.00548601
80,0.3984375,-328.237,0.013175
120,0.59375,-307.456,0.0180638
160,0.7890625,-278.672,0.0233209
200,0.984375,-238.949,0.0312173
240,1.17969,-215.525,0.0376225
280,1.375,-176.108,0.0447249
320,1.57031,-154.197,0.0522745
360,1.765625,-128.89,0.0575316
400,1.96094,-91.8963,0.0650597
440,2.15625,-70.0968,0.07101059
480,2.35156,-48.5974,0.0760424
520,2.546875,-16.064,0.0830555
560,2.74219,9.61042,0.0900042
600,2.9375,42.7548,0.0968778
640,3.13281,80.2846,0.101656
680,3.328125,94.5021,0.107896
720,3.52344,118.083,0.11668
760,3.71875,160.743,0.122162
800,3.91406,174.699,0.129508
840,4.109375,212.015,0.13563
880,4.30469,235.145,0.142121
920,4.5,267.949,0.149735
960,4.69531,288.94,0.154967
1000,4.890625,331.574,0.163475
1040,5.08594,355.061,0.169194
1080,5.28125,380.763,0.175095
1120,5.47656,402.261,0.180527
1160,5.671875,433.15,0.188187
1200,5.86719,461.461,0.194095
1240,6.0625,490.529,0.201488
1280,6.25781,501.535,0.207267
1320,6.453125,538.207,0.212181
1360,6.64844,560.838,0.2208209
1400,6.84375,582.162,0.227079
1440,7.03906,620.236,0.233467
1480,7.234375,642.168,0.240455
1520,7.42969,662.072,0.24509
1560,7.625,683.824,0.2551353
1600,7.82031,708.82,0.258722
1640,8.015625,750.876,0.26556
1680,8.21094,776.546,0.272895
1720,8.40625,797.56,0.277684
1760,8.60156,822.974,0.285677
1800,8.796875,846.247,0.291746
1840,8.99219,872.355,0.2984333
1880,9.1875,900.532,0.30604
1920,9.38281,938.548,0.31114
1960,9.578125,954.351,0.317738
2000,9.77344,975.781,0.324197
2040,9.96875,1012.42,0.330527
2080,10.1641,1032,0.338602
2120,10.3594,1048.18,0.34412
2160,10.5547,1074,0.3501606
2200,10.75,1101.08,0.356272
2240,10.9453,1123.41,0.361887
2280,11.1406,1150.64,0.369701
2320,11.3359,1173.72,0.375652
2360,11.53125,1197.07,0.382508
2400,11.7266,1233.91,0.389532
2440,11.9219,1254.17,0.395851
2480,12.1172,1273.09,0.402678
2520,12.3125,1303.46,0.408969
2560,12.5078,1326.32,0.414816
2600,12.7031,1353.58,0.4223156
2640,12.8984,1384.74,0.429425
2680,13.09375,1412.72,0.434382
2720,13.2891,1429.59,0.442547
2760,13.4844,1448.07,0.448984
2800,13.6797,1483.52,0.455972
2840,13.875,1513.52,0.46173
2880,14.0703,1517.21,0.467209
2920,14.2656,1547.76,0.473356
2960,14.4609,1567.18,0.480638
3000,14.65625,1600.89,0.485852
3040,14.8516,1625.7,0.494113
3080,15.0469,1637.46,0.49966
3120,15.2422,1669.6,0.506902
3160,15.4375,1692.66,0.5138433
3200,15.6328,1713.26,0.520577
3240,15.8281,1735.67,0.527498
3280,16.0234,1760.28,0.533381
3320,16.21875,1788.17,0.539478
3360,16.4141,1824.94,0.547035
3400,16.6094,1836.46,0.552485
3440,16.8047,1865.97,0.559891
3480,17.0,1882.8,0.566036
3520,17.1953,1909.71,0.572112
3560,17.3906,1947.6,0.581135
3600,17.5859,1956.61,0.584654
3640,17.78125,1985.18,0.591345
3680,17.9766,1999,0.598454
3720,18.1719,2025.45,0.60305
3760,18.3672,2055.31,0.612148
3800,18.5625,2082.64,0.6191
3840,18.7578,2106.62,0.625209
3880,18.9531,2126.09,0.630898
3920,19.1484,2140.74,0.636213
3960,19.34375,2157.46,0.643358
4000,19.5391,2186.28,0.651616
4040,19.7344,2209.91,0.656401
4080,19.9297,2231.58,0.663471
4120,20.125,2253.79,0.669587
4160,20.3203,2284.94,0.675663
4200,20.5156,2318.45,0.683842
4240,20.7109,2328.12,0.690751
4280,20.90625,2343.55,0.695143
4320,21.1016,2375.93,0.703322
4360,21.2969,2395.88,0.70875
4400,21.4922,2428.53,0.716236
4440,21.6875,2442.4,0.722523
4480,21.8828,2463.13,0.727851
4520,22.0781,2493.13,0.7348609
4560,22.2734,2506.82,0.741996
4600,22.46875,2537.37,0.749302
4640,22.6641,2562.66,0.756837
4680,22.8594,2569.37,0.760156
4720,23.0547,2598.47,0.767419
4760,23.25,2619.95,0.7734561
4800,23.4453,2635.28,0.780001
4840,23.6406,2666.77,0.787514
4880,23.8359,2678.53,0.793691
4920,24.03125,2697.23,0.798547
4960,24.2266,2734.71,0.806587
5000,24.4219,2753.33,0.812176
5040,24.6172,2782.6,0.819923
5080,24.8125,2797.45,0.825319
5120,25.0078,2818.3,0.8313024
5160,25.2031,2844.79,0.839406
5200,25.3984,2862.78,0.845722
5240,25.59375,2879.88,0.851601
5280,25.7891,2900.29,0.857005
5320,25.9844,2922.89,0.864129
5360,26.1797,2939.42,0.872684
5400,26.375,2969.71,0.878166
5440,26.5703,2982.26,0.884314
5480,26.7656,3013.97,0.891505
5520,26.9609,3021.63,0.896494
5560,27.15625,3056.24,0.904856
5600,27.3516,3064.49,0.911586
5640,27.5469,3093.3,0.91483
5680,27.7422,3125.49,0.923685
5720,27.9375,3124,0.930766
5760,28.1328,3152.12,0.934628
5800,28.3281,3169.39,0.943358
5840,28.5234,3193.16,0.949169
5880,28.71875,3216.53,0.956311
5920,28.9141,3238.2,0.963814
5960,29.1094,3258.66,0.968528
6000,29.3047,3296.63,0.977129
6040,29.5,3302.03,0.981402
6080,29.6953,3320.58,0.989553
6120,29.8906,3350.83,0.995775
6160,30.0859,3356.55,1.00224
6200,30.28125,3392.66,1.01009
6240,30.4766,3411.55,1.01546
6280,30.6719,3419.79,1.02232
6320,30.8672,3451.87,1.02759
6360,31.0625,3472,1.03482
6400,31.2578,3494.84,1.04176
6440,31.4531,3507.34,1.04778
6480,31.6484,3510.77,1.05376
6520,31.84375,3543.28,1.05989
6560,32.0391,3579.78,1.0675
6600,32.2344,3590.15,1.0726
6640,32.4297,3617.11,1.081
6680,32.625,3617.07,1.08588
6720,32.8203,3647.07,1.093483
6760,33.0156,3675.3,1.10085
6800,33.2109,3686.97,1.10502
6840,33.40625,3717.25,1.11355
6880,33.6016,3731.45,1.11947
6920,33.7969,3753.6,1.12556
6960,33.9922,3772.96,1.13256
7000,34.1875,3781.07,1.13684
7040,34.3828,3820.95,1.14614
7080,34.5781,3831.64,1.15297
7120,34.7734,3839.82,1.15691
7160,34.96875,3881.24,1.16447
7200,35.1641,3877.78,1.17066
7240,35.3594,3917.73,1.17807
7280,35.5547,3927.41,1.18535
7320,35.75,3935.37,1.189245
7360,35.9453,3953.91,1.19737
7400,36.1406,3975.73,1.20288
7440,36.3359,3992.33,1.20876
7480,36.53125,4012.5,1.21736
7520,36.7266,4032.97,1.22321
7560,36.9219,4062.01,1.23051
7600,37.1172,4076.25,1.23744
7640,37.3125,4084.5,1.24177
7680,37.5078,4113.02,1.25018
7720,37.7031,4135.09,1.25751
7760,37.8984,4150.26,1.26268
7800,38.09375,4183.92,1.26997
7840,38.2891,4191.76,1.27593
7880,38.4844,4217.63,1.282897
7920,38.6797,4228.65,1.28891
7960,38.875,4249.7,1.29314
8000,39.0703,4264.2,1.30393
8040,39.2656,4285.87,1.307795
8080,39.4609,4315.58,1.31303
8120,39.65625,4318.63,1.32146
8160,39.8516,4335.2,1.32635
8200,40.0469,4362.63,1.33408
8240,40.2422,4364.73,1.34104
8280,40.4375,4391.68,1.34541
8320,40.6328,4424.9,1.35326
8360,40.8281,4432.05,1.3595
8400,41.0234,4452.01,1.36549
8440,41.21875,4461.97,1.37379
8480,41.4141,4475.11,1.37744
8520,41.6094,4506.15,1.38732
8560,41.8047,4536.01,1.3921
8600,42.0,4544.7,1.39796
8640,42.1953,4563.37,1.40692
8680,42.3906,4579.84,1.41285
8720,42.5859,4604.86,1.4192
8760,42.78125,4618.45,1.42611
8800,42.9766,4631.12,1.43251
8840,43.1719,4647.05,1.43911
8880,43.3672,4673.29,1.44597
8920,43.5625,4679.63,1.45093
8960,43.7578,4700.14,1.4586
9000,43.9531,4712.1,1.46438
9040,44.1484,4744.17,1.471746
9080,44.34375,4749,1.47734
9120,44.5391,4760.48,1.48277
9160,44.7344,4796.71,1.49094
9200,44.9297,4808.64,1.49485
9240,45.125,4825.18,1.50254
9280,45.3203,4853.93,1.50997
9320,45.5156,4859.41,1.51637
9360,45.7109,4881.04,1.52191
9400,45.90625,4911.26,1.5296
9440,46.1016,4921.02,1.536988
9480,46.2969,4950.76,1.54297
9520,46.4922,4951.88,1.54903
9560,46.6875,4981.89,1.55743
9600,46.8828,4989.6,1.56373
9640,47.0781,5007.75,1.56915
9680,47.2734,5028.18,1.57607
9720,47.46875,5047.85,1.58283
9760,47.6641,5070.81,1.58815
9800,47.8594,5082.89,1.5934
9840,48.0547,5086.55,1.60034
9880,48.25,5119.38,1.60602
9920,48.4453,5123.57,1.61398
9960,48.6406,5142.17,1.62079
10000,48.8359,5156.45,1.62718
10040,49.03125,5176.33,1.635257
10080,49.2266,5210.67,1.63976
10120,49.4219,5223.73,1.64605
10160,49.6172,5224.37,1.65229
10200,49.8125,5247.95,1.65985
10240,50.0078,5269.99,1.66712
10280,50.2031,5278.93,1.67177
10320,50.3984,5300.72,1.67899
10360,50.59375,5316.42,1.68563
10400,50.7891,5322.85,1.69279
10440,50.9844,5351.28,1.69883
10480,51.1797,5373.52,1.70507
10520,51.375,5387.02,1.71183
10560,51.5703,5393.86,1.71933
10600,51.7656,5418.37,1.72353
10640,51.9609,5427.4,1.732
10680,52.15625,5448.35,1.73674
10720,52.3516,5461.19,1.74491
10760,52.5469,5475.66,1.7507
10800,52.7422,5485.02,1.75681
10840,52.9375,5516.53,1.76353
10880,53.1328,5525.73,1.76953
10920,53.3281,5538.8,1.77754
10960,53.5234,5555.35,1.78418
11000,53.71875,5576.08,1.78915
11040,53.9141,5590.43,1.79578
11080,54.1094,5619.73,1.80231
11120,54.3047,5625.89,1.809411
11160,54.5,5634.2,1.81612
11200,54.6953,5653.07,1.82324
11240,54.8906,5669.48,1.828748
11280,55.0859,5687.06,1.8361
11320,55.28125,5702.88,1.843189
11360,55.4766,5713.21,1.8496
11400,55.6719,5744.6,1.8557
11440,55.8672,5746.46,1.85882
11480,56.0625,5763.98,1.86758
11520,56.2578,5776.94,1.87351
11560,56.4531,5795.6,1.88073
11600,56.6484,5810.81,1.88669
11640,56.84375,5817.71,1.89368
11680,57.0391,5833.83,1.90003
11720,57.2344,5857.77,1.90695
11760,57.4297,5868.98,1.91133
11800,57.625,5885.12,1.91885
11840,57.8203,5908.79,1.9275
11880,58.0156,5919.85,1.93233
11887,58.0498,2051.29,1.95863