File: ASM109_2021_data/MTS/90/MTS_90_7.csv
,Time [s],Load [N],Displacement [mm]
0,0.0078125,-375.452,0.0005543232
40,0.203125,-342.648,0.00507832
80,0.3984375,-319.014,0.0113583
120,0.59375,-296.111,0.0178385
160,0.7890625,-263.712,0.0258672
200,0.984375,-244.949,0.0308704
240,1.17969,-217.004,0.0396502
280,1.375,-182.671,0.04540801
320,1.57031,-165.885,0.0521028
360,1.765625,-140.499,0.0573885
400,1.96094,-103.321,0.0645733
440,2.15625,-90.771,0.071876
480,2.35156,-60.8304,0.0788355
520,2.546875,-29.6147,0.0851262
560,2.74219,-18.2943,0.0909913
600,2.9375,14.1753,0.0972283
640,3.13281,49.4099,0.104878
680,3.328125,70.4666,0.112517
720,3.52344,89.9679,0.117245
760,3.71875,115.571,0.122688
800,3.91406,140.642,0.129139
840,4.109375,169.692,0.135155
880,4.30469,196.547,0.143262
920,4.5,229.424,0.149753
960,4.69531,240.986,0.153315
1000,4.890625,270.098,0.161719
1040,5.08594,291.829,0.168407
1080,5.28125,325.85,0.173936
1120,5.47656,348.827,0.180459
1160,5.671875,367.084,0.186338
1200,5.86719,394.677,0.19421
1240,6.0625,417.593,0.202249
1280,6.25781,445.738,0.207177
1320,6.453125,472.14,0.214877
1360,6.64844,486.742,0.220417
1400,6.84375,505.956,0.22615
1440,7.03906,545.918,0.234901
1480,7.234375,554.919,0.239893
1520,7.42969,589.387,0.247028
1560,7.625,615.481,0.2528286
1600,7.82031,636.965,0.259316
1640,8.015625,658.472,0.266776
1680,8.21094,685.972,0.271811
1720,8.40625,705.958,0.280023
1760,8.60156,741.459,0.287747
1800,8.796875,760.982,0.291606
1840,8.99219,781.106,0.298998
1880,9.1875,805.986,0.3056
1920,9.38281,835.654,0.311233
1960,9.578125,861.567,0.317849
2000,9.77344,880.708,0.324218
2040,9.96875,907.391,0.330981
2080,10.1641,927.077,0.337472
2120,10.3594,958.987,0.343398
2160,10.5547,972.678,0.34976
2200,10.75,1000.46,0.356716
2240,10.9453,1036.64,0.364734
2280,11.1406,1053.77,0.370442
2320,11.3359,1070.39,0.3770864
2360,11.53125,1102.02,0.382973
2400,11.7266,1112.09,0.39049
2440,11.9219,1148.27,0.395494
2480,12.1172,1170.24,0.402009
2520,12.3125,1194.66,0.408114
2560,12.5078,1216.38,0.416347
2600,12.7031,1238.97,0.422333
2640,12.8984,1260.05,0.429153
2680,13.09375,1292.18,0.435312
2720,13.2891,1309.49,0.440036
2760,13.4844,1340.84,0.447993
2800,13.6797,1366.41,0.454935
2840,13.875,1384.97,0.4610002
2880,14.0703,1401.62,0.468031
2920,14.2656,1440.49,0.474544
2960,14.4609,1459.79,0.481507
3000,14.65625,1484.39,0.488652
3040,14.8516,1500.44,0.494957
3080,15.0469,1527.89,0.501194
3120,15.2422,1562.71,0.506984
3160,15.4375,1573.15,0.514448
3200,15.6328,1601.89,0.521075
3240,15.8281,1618.18,0.525917
3280,16.0234,1659.76,0.534461
3320,16.21875,1670.54,0.540859
3360,16.4141,1700.91,0.54642
3400,16.6094,1713.43,0.554008
3440,16.8047,1747.4,0.559162
3480,17.0,1764.58,0.567012
3520,17.1953,1789.73,0.572623
3560,17.3906,1814.55,0.579329
3600,17.5859,1843.1,0.58549
3640,17.78125,1852.09,0.590951
3680,17.9766,1884.87,0.598551
3720,18.1719,1900.75,0.604577
3760,18.3672,1925.74,0.611111
3800,18.5625,1949.77,0.617795
3840,18.7578,1969.22,0.622619
3880,18.9531,1990.97,0.632114
3920,19.1484,2020.98,0.637593
3960,19.34375,2037.45,0.643405
4000,19.5391,2068.5,0.650872
4040,19.7344,2089.9,0.657864
4080,19.9297,2113.59,0.6627202
4120,20.125,2136.39,0.670305
4160,20.3203,2157.61,0.677315
4200,20.5156,2172.36,0.682136
4240,20.7109,2195.94,0.690787
4280,20.90625,2221.39,0.697403
4320,21.1016,2257.58,0.701541
4360,21.2969,2263.77,0.707706
4400,21.4922,2282.34,0.715148
4440,21.6875,2314.1,0.721475
4480,21.8828,2338.7,0.728073
4520,22.0781,2360.5,0.735437
4560,22.2734,2392.41,0.740247
4600,22.46875,2410.91,0.747274
4640,22.6641,2420.71,0.753118
4680,22.8594,2456.59,0.761544
4720,23.0547,2468.2,0.766779
4760,23.25,2487.82,0.774876
4800,23.4453,2508.31,0.781184
4840,23.6406,2535.32,0.787693
4880,23.8359,2549.58,0.7945919
4920,24.03125,2572.08,0.800875
4960,24.2266,2597.94,0.806293
5000,24.4219,2622.09,0.81326
5040,24.6172,2637.08,0.819515
5080,24.8125,2662.61,0.826439
5120,25.0078,2691,0.833699
5160,25.2031,2702.5,0.840268
5200,25.3984,2717.12,0.846198
5240,25.59375,2744.03,0.853204
5280,25.7891,2775.97,0.859905
5320,25.9844,2789.88,0.865238
5360,26.1797,2804.32,0.870745
5400,26.375,2834.19,0.877976
5440,26.5703,2853.98,0.883942
5480,26.7656,2879.1,0.890815
5520,26.9609,2891.47,0.898819
5560,27.15625,2921.93,0.904727
5600,27.3516,2943.43,0.911143
5640,27.5469,2963.54,0.917205
5680,27.7422,2994.45,0.924783
5720,27.9375,2998.14,0.932461
5760,28.1328,3020.47,0.937082
5800,28.3281,3044.31,0.944642
5840,28.5234,3069.23,0.950042
5880,28.71875,3089.78,0.956004
5920,28.9141,3108.91,0.964215
5960,29.1094,3124.95,0.970534
6000,29.3047,3157.75,0.976217
6040,29.5,3174.98,0.982343
6080,29.6953,3196,0.989363
6120,29.8906,3220.64,0.995057
6160,30.0859,3225.99,1.002084
6200,30.28125,3256.28,1.00905
6240,30.4766,3276.33,1.0157
6280,30.6719,3296.63,1.02119
6320,30.8672,3313.49,1.028
6360,31.0625,3333.5,1.03435
6400,31.2578,3364.81,1.03993
6440,31.4531,3378.3,1.04774
6480,31.6484,3402.05,1.05461
6520,31.84375,3426.98,1.06113
6560,32.0391,3440.87,1.06754
6600,32.2344,3467.14,1.07484
6640,32.4297,3490.4,1.08273
6680,32.625,3503.31,1.08597
6720,32.8203,3519.56,1.09195
6760,33.0156,3544.66,1.100682
6800,33.2109,3562.81,1.10599
6840,33.40625,3592.32,1.11296
6880,33.6016,3613.55,1.12021
6920,33.7969,3615.67,1.12601
6960,33.9922,3646.78,1.133709
7000,34.1875,3670.21,1.13858
7040,34.3828,3689.13,1.14599
7080,34.5781,3710.86,1.15177
7120,34.7734,3728.53,1.1574
7160,34.96875,3761.74,1.16489
7200,35.1641,3763.63,1.17096
7240,35.3594,3792.84,1.17767
7280,35.5547,3802.53,1.18455
7320,35.75,3822.61,1.19055
7360,35.9453,3845.32,1.19787
7400,36.1406,3870.94,1.20361
7440,36.3359,3897.61,1.21052
7480,36.53125,3907.93,1.21737
7520,36.7266,3926.93,1.2244
7560,36.9219,3951.7,1.23097
7600,37.1172,3960.83,1.2366
7640,37.3125,3986.71,1.24315
7680,37.5078,4000.33,1.25066
7720,37.7031,4015.73,1.25608
7760,37.8984,4045.86,1.26253
7800,38.09375,4062.41,1.26892
7840,38.2891,4077.55,1.27687
7880,38.4844,4110.54,1.28106
7920,38.6797,4119.51,1.28819
7960,38.875,4140.74,1.29348
8000,39.0703,4169.92,1.30101
8040,39.2656,4174.94,1.30818
8080,39.4609,4206.13,1.31333
8120,39.65625,4214.76,1.32181
8160,39.8516,4244.64,1.32871
8200,40.0469,4269.92,1.33508
8240,40.2422,4281.43,1.34013
8280,40.4375,4294.34,1.34875
8320,40.6328,4306.79,1.3542
8360,40.8281,4337.09,1.36051
8400,41.0234,4362.91,1.36775
8440,41.21875,4382.21,1.373
8480,41.4141,4394.82,1.37989
8520,41.6094,4409.27,1.38585
8560,41.8047,4438.35,1.39207
8600,42.0,4452.17,1.39933
8640,42.1953,4471.79,1.4063
8680,42.3906,4490.2,1.41039
8720,42.5859,4500.82,1.41904
8760,42.78125,4523.12,1.4259
8800,42.9766,4539.68,1.43171
8840,43.1719,4564.12,1.43795
8880,43.3672,4581.09,1.44329
8920,43.5625,4604.05,1.44973
8960,43.7578,4617.16,1.45744
9000,43.9531,4641.16,1.46469
9040,44.1484,4657.26,1.47053
9080,44.34375,4687.72,1.47853
9120,44.5391,4702.04,1.48484
9160,44.7344,4713.82,1.49146
9200,44.9297,4732.41,1.497817
9240,45.125,4753.17,1.50463
9280,45.3203,4776.45,1.51101
9320,45.5156,4789.27,1.51789
9360,45.7109,4815.95,1.52378
9400,45.90625,4831.94,1.5291
9440,46.1016,4839.3,1.53696
9480,46.2969,4860.67,1.542238
9520,46.4922,4878.5,1.54985
9560,46.6875,4893.02,1.55409
9600,46.8828,4925.25,1.56119
9640,47.0781,4943.32,1.56811
9680,47.2734,4942.98,1.57513
9720,47.46875,4975.86,1.58119
9760,47.6641,4994.55,1.58744
9800,47.8594,5008.83,1.59389
9840,48.0547,5027.83,1.60054
9880,48.25,5042.93,1.60881
9920,48.4453,5067.94,1.61488
9960,48.6406,5090.92,1.62062
10000,48.8359,5104.57,1.62935
10040,49.03125,5105.95,1.63439
10080,49.2266,5138.64,1.638912
10120,49.4219,5152.44,1.64818
10160,49.6172,5164.85,1.65322
10200,49.8125,5191.66,1.65981
10240,50.0078,5194.15,1.66698
10280,50.2031,5214.71,1.67273
10320,50.3984,5244.33,1.67913
10360,50.59375,5259.21,1.68594
10400,50.7891,5274.09,1.69053
10440,50.9844,5297.38,1.69788
10480,51.1797,5319.26,1.70517
10520,51.375,5322.64,1.71222
10560,51.5703,5345.92,1.71728
10600,51.7656,5352.38,1.72391
10640,51.9609,5389.66,1.73217
10680,52.15625,5398.24,1.73841
10720,52.3516,5416.52,1.74293
10760,52.5469,5433.08,1.74979
10800,52.7422,5448.2,1.75832
10840,52.9375,5472.43,1.76459
10880,53.1328,5481.12,1.77197
10920,53.3281,5496.43,1.77665
10960,53.5234,5518.59,1.78314
11000,53.71875,5541.7,1.78895
11040,53.9141,5552.3,1.7964
11080,54.1094,5575.18,1.80336
11120,54.3047,5587.76,1.81021
11160,54.5,5607.5,1.81568
11200,54.6953,5615.15,1.82259
11240,54.8906,5630.68,1.82714
11280,55.0859,5657.78,1.83576
11320,55.28125,5667.69,1.84075
11360,55.4766,5696.92,1.84871
11400,55.6719,5702.35,1.85379
11440,55.8672,5715.56,1.86234
11480,56.0625,5748.02,1.86779
11520,56.2578,5758.68,1.87472
11560,56.4531,5775.17,1.87921
11600,56.6484,5799.49,1.88876
11640,56.84375,5799.06,1.89504
11680,57.0391,5821.18,1.90095
11720,57.2344,5849.44,1.90806
11751,57.3857,1484.39,1.9124